#K-Path(1/A) Energy-Level(eV)
# NKPTS & NBANDS: 120  24
# Band-Index    1
   0.00000    -20.301474
   0.04540    -20.297397
   0.09081    -20.282603
   0.13621    -20.262713
   0.18162    -20.236353
   0.22702    -20.199875
   0.27243    -20.157859
   0.31783    -20.109566
   0.36324    -20.056158
   0.40864    -19.997503
   0.45404    -19.935056
   0.49945    -19.870036
   0.54485    -19.803858
   0.59026    -19.738230
   0.63566    -19.675202
   0.68107    -19.616575
   0.72647    -19.567129
   0.77187    -19.528102
   0.81728    -19.503122
   0.86268    -19.494502
   0.86268    -19.494502
   0.90809    -19.491032
   0.95349    -19.480706
   0.99890    -19.463677
   1.04430    -19.440432
   1.08971    -19.410758
   1.13511    -19.375791
   1.18051    -19.335887
   1.22592    -19.291761
   1.27132    -19.244213
   1.31673    -19.194194
   1.36213    -19.142744
   1.40754    -19.091012
   1.45294    -19.040443
   1.49834    -18.991678
   1.54375    -18.948462
   1.58915    -18.911144
   1.63456    -18.882581
   1.67996    -18.864001
   1.72537    -18.857454
   1.72537    -18.857454
   1.78958    -18.870360
   1.85379    -18.907701
   1.91800    -18.966904
   1.98221    -19.045538
   2.04642    -19.140050
   2.11064    -19.245973
   2.17485    -19.359677
   2.23906    -19.476870
   2.30327    -19.595484
   2.36748    -19.711748
   2.43169    -19.822955
   2.49590    -19.925891
   2.56012    -20.019747
   2.62433    -20.102032
   2.68854    -20.171346
   2.75275    -20.226510
   2.81696    -20.266792
   2.88117    -20.291999
   2.94538    -20.301474
   2.94538    -20.301474
   3.02403    -20.287294
   3.10267    -20.250531
   3.18131    -20.191650
   3.25996    -20.109656
   3.33860    -20.005973
   3.41724    -19.884744
   3.49588    -19.747886
   3.57453    -19.597642
   3.65317    -19.439764
   3.73181    -19.276067
   3.81045    -19.111323
   3.88910    -18.951495
   3.96774    -18.799742
   4.04638    -18.661393
   4.12503    -18.541413
   4.20367    -18.442869
   4.28231    -18.369697
   4.36095    -18.325874
   4.43960    -18.310757
   4.43960    -18.310757
   4.50381    -18.320374
   4.56802    -18.347691
   4.63223    -18.393753
   4.69644    -18.454713
   4.76065    -18.529868
   4.82486    -18.615555
   4.88908    -18.707118
   4.95329    -18.803923
   5.01750    -18.901646
   5.08171    -18.998379
   5.14592    -19.092386
   5.21013    -19.179417
   5.27435    -19.258573
   5.33856    -19.328167
   5.40277    -19.386384
   5.46698    -19.432686
   5.53119    -19.466924
   5.59540    -19.487572
   5.65961    -19.494502
   5.65961    -18.310757
   5.70502    -18.314887
   5.75042    -18.326845
   5.79583    -18.345854
   5.84123    -18.372778
   5.88664    -18.405735
   5.93204    -18.444126
   5.97745    -18.484737
   6.02285    -18.528839
   6.06825    -18.573859
   6.11366    -18.619027
   6.15906    -18.662332
   6.20447    -18.703761
   6.24987    -18.742635
   6.29528    -18.775828
   6.34068    -18.804422
   6.38608    -18.827605
   6.43149    -18.844319
   6.47689    -18.854040
   6.52230    -18.857454
 
# Band-Index    2
   6.52230    -18.267348
   6.47689    -18.267626
   6.43149    -18.268913
   6.38608    -18.270276
   6.34068    -18.271864
   6.29528    -18.274178
   6.24987    -18.277358
   6.20447    -18.279305
   6.15906    -18.282525
   6.11366    -18.286662
   6.06825    -18.290047
   6.02285    -18.293601
   5.97745    -18.296789
   5.93204    -18.300758
   5.88664    -18.302888
   5.84123    -18.305151
   5.79583    -18.306960
   5.75042    -18.309372
   5.70502    -18.310477
   5.65961    -18.310757
   5.65961    -18.489818
   5.59540    -18.485973
   5.53119    -18.477605
   5.46698    -18.464151
   5.40277    -18.446997
   5.33856    -18.426828
   5.27435    -18.405330
   5.21013    -18.383098
   5.14592    -18.362488
   5.08171    -18.343268
   5.01750    -18.328004
   4.95329    -18.316094
   4.88908    -18.308546
   4.82486    -18.304698
   4.76065    -18.303318
   4.69644    -18.303701
   4.63223    -18.305521
   4.56802    -18.307703
   4.50381    -18.310209
   4.43960    -18.310757
   4.43960    -18.310757
   4.36095    -18.308556
   4.28231    -18.300568
   4.20367    -18.290241
   4.12503    -18.276719
   4.04638    -18.260446
   3.96774    -18.241896
   3.88910    -18.222628
   3.81045    -18.204569
   3.73181    -18.187540
   3.65317    -18.170650
   3.57453    -18.157554
   3.49588    -18.146492
   3.41724    -18.137104
   3.33860    -18.131262
   3.25996    -18.127133
   3.18131    -18.124592
   3.10267    -18.123951
   3.02403    -18.123289
   2.94538    -18.123111
   2.94538    -18.123111
   2.88117    -18.124205
   2.81696    -18.127476
   2.75275    -18.132808
   2.68854    -18.139491
   2.62433    -18.148136
   2.56012    -18.158296
   2.49590    -18.169294
   2.43169    -18.181577
   2.36748    -18.193105
   2.30327    -18.205081
   2.23906    -18.216617
   2.17485    -18.228620
   2.11064    -18.237698
   2.04642    -18.245933
   1.98221    -18.253765
   1.91800    -18.259630
   1.85379    -18.263823
   1.78958    -18.266463
   1.72537    -18.267348
   1.72537    -18.267348
   1.67996    -18.269188
   1.63456    -18.274153
   1.58915    -18.281635
   1.54375    -18.292137
   1.49834    -18.305238
   1.45294    -18.320469
   1.40754    -18.336960
   1.36213    -18.354539
   1.31673    -18.372770
   1.27132    -18.390561
   1.22592    -18.408448
   1.18051    -18.425311
   1.13511    -18.440721
   1.08971    -18.454670
   1.04430    -18.466726
   0.99890    -18.476140
   0.95349    -18.483135
   0.90809    -18.487387
   0.86268    -18.489818
   0.86268    -18.489818
   0.81728    -18.483149
   0.77187    -18.466954
   0.72647    -18.442292
   0.68107    -18.411772
   0.63566    -18.378177
   0.59026    -18.343533
   0.54485    -18.309584
   0.49945    -18.277522
   0.45404    -18.248220
   0.40864    -18.221973
   0.36324    -18.198866
   0.31783    -18.179946
   0.27243    -18.163632
   0.22702    -18.150815
   0.18162    -18.140585
   0.13621    -18.132766
   0.09081    -18.127338
   0.04540    -18.124163
   0.00000    -18.123111
 
# Band-Index    3
   0.00000    -18.123111
   0.04540    -18.122188
   0.09081    -18.119414
   0.13621    -18.114909
   0.18162    -18.108750
   0.22702    -18.100569
   0.27243    -18.092154
   0.31783    -18.082130
   0.36324    -18.069695
   0.40864    -18.058306
   0.45404    -18.046651
   0.49945    -18.034951
   0.54485    -18.023819
   0.59026    -18.013376
   0.63566    -18.003924
   0.68107    -17.995746
   0.72647    -17.989087
   0.77187    -17.984152
   0.81728    -17.981092
   0.86268    -17.982110
   0.86268    -17.982110
   0.90809    -17.981346
   0.95349    -17.985282
   0.99890    -17.991760
   1.04430    -18.000714
   1.08971    -18.012044
   1.13511    -18.025637
   1.18051    -18.042006
   1.22592    -18.059973
   1.27132    -18.079503
   1.31673    -18.101808
   1.36213    -18.124241
   1.40754    -18.147595
   1.45294    -18.171507
   1.49834    -18.195500
   1.54375    -18.217353
   1.58915    -18.237403
   1.63456    -18.253649
   1.67996    -18.263886
   1.72537    -18.267348
   1.72537    -18.267348
   1.78958    -18.264510
   1.85379    -18.254930
   1.91800    -18.240135
   1.98221    -18.222952
   2.04642    -18.201660
   2.11064    -18.181399
   2.17485    -18.162046
   2.23906    -18.144193
   2.30327    -18.130213
   2.36748    -18.119060
   2.43169    -18.111852
   2.49590    -18.107848
   2.56012    -18.106700
   2.62433    -18.108162
   2.68854    -18.111614
   2.75275    -18.116012
   2.81696    -18.119852
   2.88117    -18.122255
   2.94538    -18.123111
   2.94538    -18.123111
   3.02403    -18.123289
   3.10267    -18.123951
   3.18131    -18.124592
   3.25996    -18.127133
   3.33860    -18.131262
   3.41724    -18.137104
   3.49588    -18.146492
   3.57453    -18.157554
   3.65317    -18.170650
   3.73181    -18.187540
   3.81045    -18.204569
   3.88910    -18.222628
   3.96774    -18.241896
   4.04638    -18.260446
   4.12503    -18.276719
   4.20367    -18.290241
   4.28231    -18.300568
   4.36095    -18.308556
   4.43960    -18.310757
   4.43960    -18.310757
   4.50381    -18.308829
   4.56802    -18.302172
   4.63223    -18.292184
   4.69644    -18.279665
   4.76065    -18.263266
   4.82486    -18.243476
   4.88908    -18.221491
   4.95329    -18.196716
   5.01750    -18.171843
   5.08171    -18.144997
   5.14592    -18.117816
   5.21013    -18.089961
   5.27435    -18.064547
   5.33856    -18.040082
   5.40277    -18.019686
   5.46698    -18.002915
   5.53119    -17.990409
   5.59540    -17.982669
   5.65961    -17.982110
   5.65961    -18.310757
   5.70502    -18.310477
   5.75042    -18.309372
   5.79583    -18.306960
   5.84123    -18.305151
   5.88664    -18.302888
   5.93204    -18.300758
   5.97745    -18.296789
   6.02285    -18.293601
   6.06825    -18.290047
   6.11366    -18.286662
   6.15906    -18.282525
   6.20447    -18.279305
   6.24987    -18.277358
   6.29528    -18.274178
   6.34068    -18.271864
   6.38608    -18.270276
   6.43149    -18.268913
   6.47689    -18.267626
   6.52230    -18.267348
 
# Band-Index    4
   6.52230    -13.786247
   6.47689    -13.784685
   6.43149    -13.780051
   6.38608    -13.772444
   6.34068    -13.762112
   6.29528    -13.749260
   6.24987    -13.734263
   6.20447    -13.717464
   6.15906    -13.699411
   6.11366    -13.680569
   6.06825    -13.661394
   6.02285    -13.642511
   5.97745    -13.624303
   5.93204    -13.607370
   5.88664    -13.592084
   5.84123    -13.578978
   5.79583    -13.568378
   5.75042    -13.560596
   5.70502    -13.555862
   5.65961    -13.554259
   5.65961    -13.845638
   5.59540    -13.844019
   5.53119    -13.839217
   5.46698    -13.831276
   5.40277    -13.820335
   5.33856    -13.806465
   5.27435    -13.789923
   5.21013    -13.770934
   5.14592    -13.749917
   5.08171    -13.727203
   5.01750    -13.703405
   4.95329    -13.679056
   4.88908    -13.654924
   4.82486    -13.631744
   4.76065    -13.610249
   4.69644    -13.591289
   4.63223    -13.575622
   4.56802    -13.563926
   4.50381    -13.556712
   4.43960    -13.554259
   4.43960    -13.554259
   4.36095    -13.556846
   4.28231    -13.564777
   4.20367    -13.578689
   4.12503    -13.598962
   4.04638    -13.624891
   3.96774    -13.654094
   3.88910    -13.683054
   3.81045    -13.708325
   3.73181    -13.727174
   3.65317    -13.737877
   3.57453    -13.739938
   3.49588    -13.733763
   3.41724    -13.720681
   3.33860    -13.702920
   3.25996    -13.683074
   3.18131    -13.664234
   3.10267    -13.649635
   3.02403    -13.641914
   2.94538    -13.640024
   2.94538    -13.640024
   2.88117    -13.641940
   2.81696    -13.649331
   2.75275    -13.663626
   2.68854    -13.683039
   2.62433    -13.704810
   2.56012    -13.726287
   2.49590    -13.745277
   2.43169    -13.760218
   2.36748    -13.770312
   2.30327    -13.775841
   2.23906    -13.777967
   2.17485    -13.778370
   2.11064    -13.778486
   2.04642    -13.779184
   1.98221    -13.780663
   1.91800    -13.782556
   1.85379    -13.784428
   1.78958    -13.785767
   1.72537    -13.786247
   1.72537    -13.786247
   1.67996    -13.786010
   1.63456    -13.785361
   1.58915    -13.784491
   1.54375    -13.783744
   1.49834    -13.783513
   1.45294    -13.784157
   1.40754    -13.785999
   1.36213    -13.789223
   1.31673    -13.793824
   1.27132    -13.799588
   1.22592    -13.806256
   1.18051    -13.813394
   1.13511    -13.820576
   1.08971    -13.827425
   1.04430    -13.833552
   0.99890    -13.838633
   0.95349    -13.842458
   0.90809    -13.844825
   0.86268    -13.845638
   0.86268    -13.845638
   0.81728    -13.844045
   0.77187    -13.839347
   0.72647    -13.831674
   0.68107    -13.821251
   0.63566    -13.808396
   0.59026    -13.793468
   0.54485    -13.776904
   0.49945    -13.759175
   0.45404    -13.740750
   0.40864    -13.722189
   0.36324    -13.703971
   0.31783    -13.686623
   0.27243    -13.670532
   0.22702    -13.660911
   0.18162    -13.653702
   0.13621    -13.647816
   0.09081    -13.643505
   0.04540    -13.640912
   0.00000    -13.640024
 
# Band-Index    5
   0.00000    -13.640024
   0.04540    -13.640912
   0.09081    -13.643505
   0.13621    -13.647816
   0.18162    -13.653702
   0.22702    -13.660911
   0.27243    -13.669279
   0.31783    -13.678583
   0.36324    -13.688501
   0.40864    -13.698824
   0.45404    -13.709243
   0.49945    -13.719460
   0.54485    -13.729218
   0.59026    -13.738246
   0.63566    -13.746312
   0.68107    -13.753189
   0.72647    -13.758749
   0.77187    -13.762816
   0.81728    -13.765297
   0.86268    -13.766150
   0.86268    -13.766150
   0.90809    -13.766068
   0.95349    -13.765884
   0.99890    -13.765581
   1.04430    -13.765173
   1.08971    -13.764660
   1.13511    -13.764064
   1.18051    -13.763413
   1.22592    -13.762698
   1.27132    -13.761952
   1.31673    -13.761216
   1.36213    -13.760471
   1.40754    -13.759756
   1.45294    -13.759079
   1.49834    -13.758490
   1.54375    -13.758001
   1.58915    -13.757589
   1.63456    -13.757289
   1.67996    -13.757091
   1.72537    -13.757027
   1.72537    -13.757027
   1.78958    -13.756308
   1.85379    -13.754128
   1.91800    -13.750513
   1.98221    -13.745614
   2.04642    -13.739483
   2.11064    -13.732275
   2.17485    -13.724156
   2.23906    -13.715263
   2.30327    -13.705888
   2.36748    -13.696236
   2.43169    -13.686597
   2.49590    -13.677192
   2.56012    -13.668331
   2.62433    -13.660284
   2.68854    -13.653310
   2.75275    -13.647664
   2.81696    -13.643437
   2.88117    -13.640876
   2.94538    -13.640024
   2.94538    -13.640024
   3.02403    -13.641914
   3.10267    -13.649635
   3.18131    -13.664234
   3.25996    -13.683074
   3.33860    -13.702920
   3.41724    -13.720681
   3.49588    -13.733763
   3.57453    -13.739938
   3.65317    -13.737877
   3.73181    -13.727174
   3.81045    -13.708325
   3.88910    -13.683054
   3.96774    -13.654094
   4.04638    -13.624890
   4.12503    -13.598962
   4.20367    -13.578688
   4.28231    -13.564777
   4.36095    -13.556845
   4.43960    -13.554258
   4.43960    -13.554258
   4.50381    -13.555239
   4.56802    -13.558399
   4.63223    -13.564598
   4.69644    -13.575494
   4.76065    -13.593108
   4.82486    -13.617183
   4.88908    -13.643717
   4.95329    -13.667896
   5.01750    -13.686250
   5.08171    -13.697021
   5.14592    -13.699799
   5.21013    -13.695448
   5.27435    -13.710450
   5.33856    -13.727521
   5.40277    -13.741481
   5.46698    -13.752305
   5.53119    -13.759995
   5.59540    -13.764599
   5.65961    -13.766150
   5.65961    -13.554258
   5.70502    -13.554364
   5.75042    -13.554678
   5.79583    -13.555172
   5.84123    -13.555873
   5.88664    -13.556739
   5.93204    -13.557750
   5.97745    -13.558831
   6.02285    -13.560041
   6.06825    -13.577016
   6.11366    -13.605690
   6.15906    -13.633474
   6.20447    -13.659751
   6.24987    -13.683886
   6.29528    -13.705210
   6.34068    -13.723328
   6.38608    -13.737873
   6.43149    -13.748451
   6.47689    -13.754867
   6.52230    -13.757027
 
# Band-Index    6
   6.52230    -13.757027
   6.47689    -13.754867
   6.43149    -13.748451
   6.38608    -13.737873
   6.34068    -13.723328
   6.29528    -13.705210
   6.24987    -13.683886
   6.20447    -13.659751
   6.15906    -13.633474
   6.11366    -13.605690
   6.06825    -13.577016
   6.02285    -13.548216
   5.97745    -13.520171
   5.93204    -13.493745
   5.88664    -13.469582
   5.84123    -13.448564
   5.79583    -13.431385
   5.75042    -13.418684
   5.70502    -13.410899
   5.65961    -13.408257
   5.65961    -13.766150
   5.59540    -13.763301
   5.53119    -13.754917
   5.46698    -13.741318
   5.40277    -13.723042
   5.33856    -13.700804
   5.27435    -13.685652
   5.21013    -13.690276
   5.14592    -13.667176
   5.08171    -13.641363
   5.01750    -13.613307
   4.95329    -13.583407
   4.88908    -13.552529
   4.82486    -13.521669
   4.76065    -13.496337
   4.69644    -13.474533
   4.63223    -13.450062
   4.56802    -13.428251
   4.50381    -13.413487
   4.43960    -13.408257
   4.43960    -13.408257
   4.36095    -13.415598
   4.28231    -13.436568
   4.20367    -13.468700
   4.12503    -13.507868
   4.04638    -13.549796
   3.96774    -13.590464
   3.88910    -13.626475
   3.81045    -13.655432
   3.73181    -13.676146
   3.65317    -13.688444
   3.57453    -13.693027
   3.49588    -13.691216
   3.41724    -13.684658
   3.33860    -13.675235
   3.25996    -13.664840
   3.18131    -13.654962
   3.10267    -13.646993
   3.02403    -13.641788
   2.94538    -13.640024
   2.94538    -13.640024
   2.88117    -13.640798
   2.81696    -13.643105
   2.75275    -13.646902
   2.68854    -13.652098
   2.62433    -13.658536
   2.56012    -13.666072
   2.49590    -13.674491
   2.43169    -13.683593
   2.36748    -13.693093
   2.30327    -13.702764
   2.23906    -13.712334
   2.17485    -13.721546
   2.11064    -13.730099
   2.04642    -13.737826
   1.98221    -13.744461
   1.91800    -13.749835
   1.85379    -13.753793
   1.78958    -13.756215
   1.72537    -13.757027
   1.72537    -13.757027
   1.67996    -13.756205
   1.63456    -13.753722
   1.58915    -13.749637
   1.54375    -13.744078
   1.49834    -13.737168
   1.45294    -13.729122
   1.40754    -13.720095
   1.36213    -13.710344
   1.31673    -13.700123
   1.27132    -13.689685
   1.22592    -13.679360
   1.18051    -13.672866
   1.13511    -13.695552
   1.08971    -13.715886
   1.04430    -13.733310
   0.99890    -13.747375
   0.95349    -13.757701
   0.90809    -13.764008
   0.86268    -13.766150
   0.86268    -13.766150
   0.81728    -13.765297
   0.77187    -13.762816
   0.72647    -13.758749
   0.68107    -13.753189
   0.63566    -13.746312
   0.59026    -13.738246
   0.54485    -13.729217
   0.49945    -13.719460
   0.45404    -13.709243
   0.40864    -13.698824
   0.36324    -13.688500
   0.31783    -13.678583
   0.27243    -13.669279
   0.22702    -13.656119
   0.18162    -13.643837
   0.13621    -13.639469
   0.09081    -13.639771
   0.04540    -13.639962
   0.00000    -13.640024
 
# Band-Index    7
   0.00000    -13.620776
   0.04540    -13.622264
   0.09081    -13.626667
   0.13621    -13.633924
   0.18162    -13.639068
   0.22702    -13.638514
   0.27243    -13.637916
   0.31783    -13.637255
   0.36324    -13.636529
   0.40864    -13.635792
   0.45404    -13.635043
   0.49945    -13.634311
   0.54485    -13.633604
   0.59026    -13.632945
   0.63566    -13.632353
   0.68107    -13.631844
   0.72647    -13.631433
   0.77187    -13.631130
   0.81728    -13.630944
   0.86268    -13.630909
   0.86268    -13.630909
   0.90809    -13.631771
   0.95349    -13.634407
   0.99890    -13.638711
   1.04430    -13.644552
   1.08971    -13.651744
   1.13511    -13.660123
   1.18051    -13.669409
   1.22592    -13.648452
   1.27132    -13.622960
   1.31673    -13.597149
   1.36213    -13.571628
   1.40754    -13.572252
   1.45294    -13.573223
   1.49834    -13.573227
   1.54375    -13.572552
   1.58915    -13.571579
   1.63456    -13.570626
   1.67996    -13.569926
   1.72537    -13.569669
   1.72537    -13.569669
   1.78958    -13.570185
   1.85379    -13.571692
   1.91800    -13.574106
   1.98221    -13.577357
   2.04642    -13.581209
   2.11064    -13.585544
   2.17485    -13.590160
   2.23906    -13.598722
   2.30327    -13.610637
   2.36748    -13.618543
   2.43169    -13.623464
   2.49590    -13.626340
   2.56012    -13.627838
   2.62433    -13.628512
   2.68854    -13.628497
   2.75275    -13.627740
   2.81696    -13.625730
   2.88117    -13.622505
   2.94538    -13.620776
   2.94538    -13.620776
   3.02403    -13.621793
   3.10267    -13.622385
   3.18131    -13.620037
   3.25996    -13.615178
   3.33860    -13.608383
   3.41724    -13.599979
   3.49588    -13.590240
   3.57453    -13.579189
   3.65317    -13.566974
   3.73181    -13.553809
   3.81045    -13.539439
   3.88910    -13.523857
   3.96774    -13.506724
   4.04638    -13.487620
   4.12503    -13.466597
   4.20367    -13.445069
   4.28231    -13.425996
   4.36095    -13.412951
   4.43960    -13.408257
   4.43960    -13.408257
   4.50381    -13.412122
   4.56802    -13.423346
   4.63223    -13.441270
   4.69644    -13.464535
   4.76065    -13.491882
   4.82486    -13.512095
   4.88908    -13.522452
   4.95329    -13.531215
   5.01750    -13.559559
   5.08171    -13.588887
   5.14592    -13.618539
   5.21013    -13.647666
   5.27435    -13.675385
   5.33856    -13.672684
   5.40277    -13.659105
   5.46698    -13.647075
   5.53119    -13.638084
   5.59540    -13.632669
   5.65961    -13.630909
   5.65961    -13.408257
   5.70502    -13.410899
   5.75042    -13.418684
   5.79583    -13.431385
   5.84123    -13.448564
   5.88664    -13.469582
   5.93204    -13.493745
   5.97745    -13.520171
   6.02285    -13.548216
   6.06825    -13.561301
   6.11366    -13.562578
   6.15906    -13.563829
   6.20447    -13.565035
   6.24987    -13.566195
   6.29528    -13.567182
   6.34068    -13.568048
   6.38608    -13.568747
   6.43149    -13.569260
   6.47689    -13.569563
   6.52230    -13.569669
 
# Band-Index    8
   6.52230    -13.453254
   6.47689    -13.452979
   6.43149    -13.452293
   6.38608    -13.450953
   6.34068    -13.449121
   6.29528    -13.446815
   6.24987    -13.444126
   6.20447    -13.441017
   6.15906    -13.437648
   6.11366    -13.434106
   6.06825    -13.430403
   6.02285    -13.426632
   5.97745    -13.422973
   5.93204    -13.419598
   5.88664    -13.416375
   5.84123    -13.413585
   5.79583    -13.411290
   5.75042    -13.409643
   5.70502    -13.408612
   5.65961    -13.408257
   5.65961    -13.531046
   5.59540    -13.532055
   5.53119    -13.534795
   5.46698    -13.538185
   5.40277    -13.541138
   5.33856    -13.542995
   5.27435    -13.543549
   5.21013    -13.542850
   5.14592    -13.541114
   5.08171    -13.538309
   5.01750    -13.534531
   4.95329    -13.529468
   4.88908    -13.504752
   4.82486    -13.480614
   4.76065    -13.459353
   4.69644    -13.441370
   4.63223    -13.427021
   4.56802    -13.416661
   4.50381    -13.410377
   4.43960    -13.408257
   4.43960    -13.408257
   4.36095    -13.412951
   4.28231    -13.425996
   4.20367    -13.445069
   4.12503    -13.466597
   4.04638    -13.487619
   3.96774    -13.506724
   3.88910    -13.523857
   3.81045    -13.539438
   3.73181    -13.553809
   3.65317    -13.566974
   3.57453    -13.579188
   3.49588    -13.590239
   3.41724    -13.599978
   3.33860    -13.608382
   3.25996    -13.615177
   3.18131    -13.620037
   3.10267    -13.622384
   3.02403    -13.621793
   2.94538    -13.620776
   2.94538    -13.620776
   2.88117    -13.620583
   2.81696    -13.620033
   2.75275    -13.619114
   2.68854    -13.617730
   2.62433    -13.615895
   2.56012    -13.613586
   2.49590    -13.610688
   2.43169    -13.607380
   2.36748    -13.603520
   2.30327    -13.599264
   2.23906    -13.594731
   2.17485    -13.582211
   2.11064    -13.561134
   2.04642    -13.536968
   1.98221    -13.511957
   1.91800    -13.488649
   1.85379    -13.469781
   1.78958    -13.457558
   1.72537    -13.453254
   1.72537    -13.453254
   1.67996    -13.455453
   1.63456    -13.461867
   1.58915    -13.472245
   1.54375    -13.486388
   1.49834    -13.503970
   1.45294    -13.524412
   1.40754    -13.547153
   1.36213    -13.570233
   1.31673    -13.567133
   1.27132    -13.563119
   1.22592    -13.558433
   1.18051    -13.553397
   1.13511    -13.548305
   1.08971    -13.543531
   1.04430    -13.539278
   0.99890    -13.535772
   0.95349    -13.533157
   0.90809    -13.531544
   0.86268    -13.531046
   0.86268    -13.531046
   0.81728    -13.531617
   0.77187    -13.533445
   0.72647    -13.536430
   0.68107    -13.540455
   0.63566    -13.545500
   0.59026    -13.551356
   0.54485    -13.557876
   0.49945    -13.564883
   0.45404    -13.572184
   0.40864    -13.579583
   0.36324    -13.586836
   0.31783    -13.593871
   0.27243    -13.600389
   0.22702    -13.606263
   0.18162    -13.611302
   0.13621    -13.615355
   0.09081    -13.618322
   0.04540    -13.620163
   0.00000    -13.620776
 
# Band-Index    9
   0.00000     -6.031840
   0.04540     -6.045798
   0.09081     -6.086233
   0.13621     -6.150026
   0.18162     -6.231928
   0.22702     -6.325935
   0.27243     -6.426182
   0.31783     -6.528722
   0.36324     -6.627671
   0.40864     -6.720441
   0.45404     -6.802788
   0.49945     -6.872333
   0.54485     -6.927681
   0.59026     -6.967630
   0.63566     -6.992071
   0.68107     -7.001961
   0.72647     -6.999987
   0.77187     -6.990567
   0.81728     -6.980221
   0.86268     -6.976475
   0.86268     -6.976475
   0.90809     -6.975570
   0.95349     -6.975222
   0.99890     -6.974718
   1.04430     -6.974289
   1.08971     -6.974088
   1.13511     -6.974499
   1.18051     -6.976133
   1.22592     -7.081863
   1.27132     -7.220233
   1.31673     -7.350114
   1.36213     -7.468850
   1.40754     -7.575839
   1.45294     -7.670518
   1.49834     -7.751258
   1.54375     -7.817867
   1.58915     -7.870252
   1.63456     -7.908030
   1.67996     -7.930580
   1.72537     -7.938021
   1.72537     -7.938021
   1.78958     -7.923160
   1.85379     -7.880175
   1.91800     -7.814469
   1.98221     -7.732896
   2.04642     -7.640430
   2.11064     -7.540031
   2.17485     -7.432283
   2.23906     -7.313813
   2.30327     -7.187061
   2.36748     -7.051323
   2.43169     -6.908052
   2.49590     -6.758944
   2.56012     -6.609083
   2.62433     -6.462802
   2.68854     -6.326125
   2.75275     -6.206929
   2.81696     -6.113026
   2.88117     -6.052594
   2.94538     -6.031840
   2.94538     -6.031840
   3.02403     -6.059403
   3.10267     -6.138375
   3.18131     -6.257089
   3.25996     -6.401935
   3.33860     -6.558453
   3.41724     -6.714836
   3.49588     -6.864316
   3.57453     -6.999117
   3.65317     -7.116183
   3.73181     -7.216510
   3.81045     -7.296357
   3.88910     -7.360218
   3.96774     -7.412198
   4.04638     -7.462070
   4.12503     -7.532848
   4.20367     -7.640752
   4.28231     -7.750107
   4.36095     -7.826330
   4.43960     -7.852560
   4.43960     -7.852560
   4.50381     -7.835044
   4.56802     -7.783715
   4.63223     -7.703769
   4.69644     -7.602255
   4.76065     -7.487322
   4.82486     -7.367356
   4.88908     -7.336283
   4.95329     -7.310003
   5.01750     -7.269919
   5.08171     -7.212737
   5.14592     -7.138325
   5.21013     -7.043851
   5.27435     -6.980619
   5.33856     -6.975874
   5.40277     -6.974077
   5.46698     -6.974142
   5.53119     -6.974822
   5.59540     -6.975458
   5.65961     -6.976475
   5.65961     -7.852560
   5.70502     -7.843791
   5.75042     -7.817725
   5.79583     -7.777535
   5.84123     -7.726193
   5.88664     -7.668055
   5.93204     -7.607823
   5.97745     -7.550155
   6.02285     -7.600108
   6.06825     -7.650509
   6.11366     -7.699139
   6.15906     -7.745073
   6.20447     -7.787697
   6.24987     -7.826325
   6.29528     -7.859444
   6.34068     -7.887374
   6.38608     -7.909457
   6.43149     -7.925415
   6.47689     -7.934788
   6.52230     -7.938021
 
# Band-Index   10
   6.52230     -7.278338
   6.47689     -7.279627
   6.43149     -7.284640
   6.38608     -7.291378
   6.34068     -7.301071
   6.29528     -7.314097
   6.24987     -7.331144
   6.20447     -7.351891
   6.15906     -7.378159
   6.11366     -7.410803
   6.06825     -7.449716
   6.02285     -7.495705
   5.97745     -7.548608
   5.93204     -7.502577
   5.88664     -7.457339
   5.84123     -7.417208
   5.79583     -7.383768
   5.75042     -7.359195
   5.70502     -7.343653
   5.65961     -7.338352
   5.65961     -6.125425
   5.59540     -6.180913
   5.53119     -6.314987
   5.46698     -6.478298
   5.40277     -6.642497
   5.33856     -6.794636
   5.27435     -6.929415
   5.21013     -6.990082
   5.14592     -7.007663
   5.08171     -7.036981
   5.01750     -7.085288
   4.95329     -7.156602
   4.88908     -7.253035
   4.82486     -7.351085
   4.76065     -7.356311
   4.69644     -7.354400
   4.63223     -7.349562
   4.56802     -7.343598
   4.50381     -7.340070
   4.43960     -7.338352
   4.43960     -7.338352
   4.36095     -7.336281
   4.28231     -7.325071
   4.20367     -7.293073
   4.12503     -7.202195
   4.04638     -7.017425
   3.96774     -6.759297
   3.88910     -6.524440
   3.81045     -6.392915
   3.73181     -6.279783
   3.65317     -6.181829
   3.57453     -6.103200
   3.49588     -6.044076
   3.41724     -6.005824
   3.33860     -5.989472
   3.25996     -5.989993
   3.18131     -6.000791
   3.10267     -6.015732
   3.02403     -6.027393
   2.94538     -6.031840
   2.94538     -6.031840
   2.88117     -6.031181
   2.81696     -6.029818
   2.75275     -6.029272
   2.68854     -6.030949
   2.62433     -6.039498
   2.56012     -6.056643
   2.49590     -6.082969
   2.43169     -6.122477
   2.36748     -6.170864
   2.30327     -6.228217
   2.23906     -6.291010
   2.17485     -6.356997
   2.11064     -6.577668
   2.04642     -6.804126
   1.98221     -6.986435
   1.91800     -7.120282
   1.85379     -7.210802
   1.78958     -7.262248
   1.72537     -7.278338
   1.72537     -7.278338
   1.67996     -7.270674
   1.63456     -7.247548
   1.58915     -7.210828
   1.54375     -7.165927
   1.49834     -7.119082
   1.45294     -7.075695
   1.40754     -7.040411
   1.36213     -7.014869
   1.31673     -6.997613
   1.27132     -6.986103
   1.22592     -6.979677
   1.18051     -6.936255
   1.13511     -6.785798
   1.08971     -6.634492
   1.04430     -6.486800
   0.99890     -6.349826
   0.95349     -6.234274
   0.90809     -6.154367
   0.86268     -6.125425
   0.86268     -6.125425
   0.81728     -6.098891
   0.77187     -6.023045
   0.72647     -5.905111
   0.68107     -5.750849
   0.63566     -5.570562
   0.59026     -5.451007
   0.54485     -5.529353
   0.49945     -5.603251
   0.45404     -5.672446
   0.40864     -5.736582
   0.36324     -5.795371
   0.31783     -5.849893
   0.27243     -5.896770
   0.22702     -5.937204
   0.18162     -5.970908
   0.13621     -5.997307
   0.09081     -6.016370
   0.04540     -6.027989
   0.00000     -6.031840
 
# Band-Index   11
   0.00000     -6.031840
   0.04540     -6.027989
   0.09081     -6.016370
   0.13621     -5.997307
   0.18162     -5.970907
   0.22702     -5.937204
   0.27243     -5.896770
   0.31783     -5.849893
   0.36324     -5.795371
   0.40864     -5.736582
   0.45404     -5.672446
   0.49945     -5.603251
   0.54485     -5.529353
   0.59026     -5.451007
   0.63566     -5.368478
   0.68107     -5.282019
   0.72647     -5.191956
   0.77187     -5.098857
   0.81728     -5.005144
   0.86268     -4.940073
   0.86268     -4.940073
   0.90809     -4.935991
   0.95349     -4.925839
   0.99890     -5.002851
   1.04430     -5.118554
   1.08971     -5.256822
   1.13511     -5.411695
   1.18051     -5.578189
   1.22592     -5.747587
   1.27132     -5.914129
   1.31673     -6.073440
   1.36213     -6.217221
   1.40754     -6.341511
   1.45294     -6.441431
   1.49834     -6.515987
   1.54375     -6.567972
   1.58915     -6.602030
   1.63456     -6.622876
   1.67996     -6.633833
   1.72537     -6.637210
   1.72537     -6.637210
   1.78958     -6.630518
   1.85379     -6.610508
   1.91800     -6.578420
   1.98221     -6.534907
   2.04642     -6.481304
   2.11064     -6.421537
   2.17485     -6.310358
   2.23906     -6.007133
   2.30327     -5.676192
   2.36748     -5.471073
   2.43169     -5.578464
   2.49590     -5.677467
   2.56012     -5.766524
   2.62433     -5.844516
   2.68854     -5.910194
   2.75275     -5.963122
   2.81696     -6.001052
   2.88117     -6.024121
   2.94538     -6.031840
   2.94538     -6.031840
   3.02403     -6.027393
   3.10267     -6.015732
   3.18131     -6.000791
   3.25996     -5.989993
   3.33860     -5.989472
   3.41724     -6.005824
   3.49588     -6.044076
   3.57453     -6.103200
   3.65317     -6.181829
   3.73181     -6.279783
   3.81045     -6.392915
   3.88910     -6.524440
   3.96774     -6.675404
   4.04638     -6.838907
   4.12503     -6.999128
   4.20367     -7.139578
   4.28231     -7.247104
   4.36095     -7.315449
   4.43960     -7.338352
   4.43960     -7.338352
   4.50381     -7.325989
   4.56802     -7.289011
   4.63223     -7.227819
   4.69644     -7.144051
   4.76065     -7.038896
   4.82486     -6.914214
   4.88908     -6.771603
   4.95329     -6.613180
   5.01750     -6.441908
   5.08171     -6.260235
   5.14592     -6.072011
   5.21013     -5.879454
   5.27435     -5.687616
   5.33856     -5.500932
   5.40277     -5.326645
   5.46698     -5.172337
   5.53119     -5.049022
   5.59540     -4.968022
   5.65961     -4.940073
   5.65961     -7.338352
   5.70502     -7.327729
   5.75042     -7.295505
   5.79583     -7.242529
   5.84123     -7.169721
   5.88664     -7.077322
   5.93204     -6.966354
   5.97745     -6.836356
   6.02285     -6.690618
   6.06825     -6.626799
   6.11366     -6.628277
   6.15906     -6.629538
   6.20447     -6.630917
   6.24987     -6.632934
   6.29528     -6.633679
   6.34068     -6.634693
   6.38608     -6.636182
   6.43149     -6.636809
   6.47689     -6.637080
   6.52230     -6.637210
 
# Band-Index   12
   6.52230     -4.421416
   6.47689     -4.577087
   6.43149     -4.815150
   6.38608     -5.056809
   6.34068     -5.294733
   6.29528     -5.525775
   6.24987     -5.748515
   6.20447     -5.960777
   6.15906     -6.162469
   6.11366     -6.352686
   6.06825     -6.528648
   6.02285     -6.690618
   5.97745     -6.836356
   5.93204     -6.966354
   5.88664     -7.077322
   5.84123     -7.169721
   5.79583     -7.242529
   5.75042     -7.295505
   5.70502     -7.327729
   5.65961     -7.338352
   5.65961     -4.940072
   5.59540     -4.867317
   5.53119     -4.939498
   5.46698     -5.053846
   5.40277     -5.202994
   5.33856     -5.378158
   5.27435     -5.571041
   5.21013     -5.771298
   5.14592     -5.972634
   5.08171     -6.162213
   5.01750     -6.332661
   4.95329     -6.477508
   4.88908     -6.599311
   4.82486     -6.716773
   4.76065     -6.855854
   4.69644     -7.009775
   4.63223     -7.148173
   4.56802     -7.252678
   4.50381     -7.317097
   4.43960     -7.338352
   4.43960     -7.338352
   4.36095     -7.315449
   4.28231     -7.247104
   4.20367     -7.139578
   4.12503     -6.999128
   4.04638     -6.838907
   3.96774     -6.675404
   3.88910     -6.451999
   3.81045     -6.109692
   3.73181     -5.744324
   3.65317     -5.361399
   3.57453     -4.969734
   3.49588     -4.575491
   3.41724     -4.182206
   3.33860     -3.795506
   3.25996     -3.416982
   3.18131     -3.092684
   3.10267     -2.826768
   3.02403     -2.617647
   2.94538     -2.527994
   2.94538     -2.527994
   2.88117     -2.594533
   2.81696     -2.788661
   2.75275     -3.087813
   2.68854     -3.437287
   2.62433     -3.808468
   2.56012     -4.189650
   2.49590     -4.574636
   2.43169     -4.953709
   2.36748     -5.322944
   2.30327     -5.357533
   2.23906     -5.238522
   2.17485     -5.117985
   2.11064     -4.995780
   2.04642     -4.874926
   1.98221     -4.757503
   1.91800     -4.644537
   1.85379     -4.541531
   1.78958     -4.458199
   1.72537     -4.421416
   1.72537     -4.421416
   1.67996     -4.433998
   1.63456     -4.465189
   1.58915     -4.504158
   1.54375     -4.545029
   1.49834     -4.585234
   1.45294     -4.621995
   1.40754     -4.656841
   1.36213     -4.688323
   1.31673     -4.716620
   1.27132     -4.741239
   1.22592     -4.763372
   1.18051     -4.788068
   1.13511     -4.824856
   1.08971     -4.857862
   1.04430     -4.886485
   0.99890     -4.909184
   0.95349     -4.915580
   0.90809     -4.917900
   0.86268     -4.940072
   0.86268     -4.940072
   0.81728     -5.005144
   0.77187     -5.098856
   0.72647     -5.191956
   0.68107     -5.282019
   0.63566     -5.368478
   0.59026     -5.365565
   0.54485     -5.139883
   0.49945     -4.896336
   0.45404     -4.636825
   0.40864     -4.365096
   0.36324     -4.082947
   0.31783     -3.792788
   0.27243     -3.498451
   0.22702     -3.202691
   0.18162     -2.911701
   0.13621     -2.759644
   0.09081     -2.641001
   0.04540     -2.558039
   0.00000     -2.527994
 
# Band-Index   13
   0.00000     -2.527994
   0.04540     -2.558039
   0.09081     -2.641001
   0.13621     -2.759644
   0.18162     -2.897922
   0.22702     -3.043941
   0.27243     -3.193927
   0.31783     -3.344331
   0.36324     -3.491931
   0.40864     -3.638316
   0.45404     -3.781473
   0.49945     -3.920887
   0.54485     -4.056351
   0.59026     -4.187577
   0.63566     -4.314450
   0.68107     -4.436807
   0.72647     -4.554741
   0.77187     -4.667531
   0.81728     -4.772956
   0.86268     -4.844627
   0.86268     -4.844627
   0.90809     -4.861141
   0.95349     -4.860341
   0.99890     -4.831933
   1.04430     -4.823510
   1.08971     -4.812432
   1.13511     -4.798817
   1.18051     -4.782550
   1.22592     -4.748148
   1.27132     -4.706262
   1.31673     -4.663756
   1.36213     -4.621349
   1.40754     -4.580437
   1.45294     -4.542162
   1.49834     -4.507764
   1.54375     -4.478062
   1.58915     -4.453945
   1.63456     -4.436252
   1.67996     -4.425244
   1.72537     -4.421416
   1.72537     -4.421416
   1.78958     -4.414765
   1.85379     -4.394821
   1.91800     -4.361093
   1.98221     -4.314853
   2.04642     -4.255536
   2.11064     -4.183364
   2.17485     -4.099218
   2.23906     -4.000732
   2.30327     -3.891601
   2.36748     -3.770981
   2.43169     -3.640044
   2.49590     -3.499591
   2.56012     -3.349808
   2.62433     -3.192574
   2.68854     -3.031011
   2.75275     -2.868513
   2.81696     -2.712715
   2.88117     -2.583861
   2.94538     -2.527994
   2.94538     -2.527994
   3.02403     -2.617647
   3.10267     -2.826768
   3.18131     -3.092684
   3.25996     -3.396676
   3.33860     -3.723650
   3.41724     -4.065809
   3.49588     -4.412790
   3.57453     -4.756719
   3.65317     -5.092343
   3.73181     -5.410821
   3.81045     -5.702966
   3.88910     -5.957590
   3.96774     -6.165316
   4.04638     -6.323128
   4.12503     -6.437851
   4.20367     -6.520012
   4.28231     -6.575997
   4.36095     -6.610000
   4.43960     -6.620845
   4.43960     -6.620845
   4.50381     -6.617284
   4.56802     -6.604476
   4.63223     -6.581462
   4.69644     -6.537977
   4.76065     -6.454000
   4.82486     -6.297426
   4.88908     -6.117330
   4.95329     -5.977899
   5.01750     -5.830131
   5.08171     -5.676118
   5.14592     -5.522240
   5.21013     -5.372543
   5.27435     -5.234713
   5.33856     -5.111810
   5.40277     -5.012135
   5.46698     -4.935948
   5.53119     -4.883297
   5.59540     -4.863232
   5.65961     -4.844627
   5.65961     -6.620845
   5.70502     -6.620962
   5.75042     -6.621308
   5.79583     -6.620869
   5.84123     -6.621707
   5.88664     -6.622722
   5.93204     -6.624024
   5.97745     -6.623982
   6.02285     -6.625407
   6.06825     -6.528648
   6.11366     -6.352686
   6.15906     -6.162469
   6.20447     -5.960777
   6.24987     -5.748515
   6.29528     -5.525775
   6.34068     -5.294733
   6.38608     -5.056809
   6.43149     -4.815150
   6.47689     -4.577087
   6.52230     -4.421416
 
# Band-Index   14
   6.52230     -4.154740
   6.47689     -4.144239
   6.43149     -4.234209
   6.38608     -4.373424
   6.34068     -4.551267
   6.29528     -4.756125
   6.24987     -4.977708
   6.20447     -5.203320
   6.15906     -5.427863
   6.11366     -5.645060
   6.06825     -5.844674
   6.02285     -6.024697
   5.97745     -6.179769
   5.93204     -6.309329
   5.88664     -6.412085
   5.84123     -6.491551
   5.79583     -6.549488
   5.75042     -6.590834
   5.70502     -6.613475
   5.65961     -6.620845
   5.65961     -4.844627
   5.59540     -4.852674
   5.53119     -4.668076
   5.46698     -4.404813
   5.40277     -4.106429
   5.33856     -3.789405
   5.27435     -3.875093
   5.21013     -4.269545
   5.14592     -4.663211
   5.08171     -5.046836
   5.01750     -5.413982
   4.95329     -5.754292
   4.88908     -6.055026
   4.82486     -6.243632
   4.76065     -6.355146
   4.69644     -6.448228
   4.63223     -6.522385
   4.56802     -6.576137
   4.50381     -6.609921
   4.43960     -6.620845
   4.43960     -6.620845
   4.36095     -6.610000
   4.28231     -6.575997
   4.20367     -6.520012
   4.12503     -6.437851
   4.04638     -6.323128
   3.96774     -6.165316
   3.88910     -5.957590
   3.81045     -5.702966
   3.73181     -5.410821
   3.65317     -5.092343
   3.57453     -4.756719
   3.49588     -4.412790
   3.41724     -4.065809
   3.33860     -3.723650
   3.25996     -3.396676
   3.18131     -3.045972
   3.10267     -2.676815
   3.02403     -2.519261
   2.94538     -2.527994
   2.94538     -2.527994
   2.88117     -2.524515
   2.81696     -2.514688
   2.75275     -2.657109
   2.68854     -2.810218
   2.62433     -2.951429
   2.56012     -3.085089
   2.49590     -3.212583
   2.43169     -3.333581
   2.36748     -3.446996
   2.30327     -3.569492
   2.23906     -3.690113
   2.17485     -3.797717
   2.11064     -3.889476
   2.04642     -3.968953
   1.98221     -4.034779
   1.91800     -4.086573
   1.85379     -4.124431
   1.78958     -4.147180
   1.72537     -4.154740
   1.72537     -4.154740
   1.67996     -4.156814
   1.63456     -4.163007
   1.58915     -4.172008
   1.54375     -4.184670
   1.49834     -4.201320
   1.45294     -4.222355
   1.40754     -4.247601
   1.36213     -4.277808
   1.31673     -4.313797
   1.27132     -4.356170
   1.22592     -4.406648
   1.18051     -4.465795
   1.13511     -4.534105
   1.08971     -4.611387
   1.04430     -4.695891
   0.99890     -4.781693
   0.95349     -4.837883
   0.90809     -4.841396
   0.86268     -4.844627
   0.86268     -4.844627
   0.81728     -4.772956
   0.77187     -4.667531
   0.72647     -4.554741
   0.68107     -4.436807
   0.63566     -4.314450
   0.59026     -4.187577
   0.54485     -4.056351
   0.49945     -3.920887
   0.45404     -3.781473
   0.40864     -3.638316
   0.36324     -3.491931
   0.31783     -3.344331
   0.27243     -3.193927
   0.22702     -3.043941
   0.18162     -2.897922
   0.13621     -2.626578
   0.09081     -2.534832
   0.04540     -2.529718
   0.00000     -2.527994
 
# Band-Index   15
   0.00000     -1.929522
   0.04540     -2.126639
   0.09081     -2.361595
   0.13621     -2.543161
   0.18162     -2.554427
   0.22702     -2.565798
   0.27243     -2.585557
   0.31783     -2.603652
   0.36324     -2.620080
   0.40864     -2.639904
   0.45404     -2.659677
   0.49945     -2.680099
   0.54485     -2.698705
   0.59026     -2.715747
   0.63566     -2.730811
   0.68107     -2.743539
   0.72647     -2.753634
   0.77187     -2.760862
   0.81728     -2.765054
   0.86268     -2.772777
   0.86268     -2.772777
   0.90809     -2.753774
   0.95349     -2.716883
   0.99890     -2.655919
   1.04430     -2.572083
   1.08971     -2.694248
   1.13511     -2.841476
   1.18051     -2.983589
   1.22592     -3.120680
   1.27132     -3.252040
   1.31673     -3.377338
   1.36213     -3.522965
   1.40754     -3.663068
   1.45294     -3.788544
   1.49834     -3.896301
   1.54375     -3.987063
   1.58915     -4.059451
   1.63456     -4.113238
   1.67996     -4.144794
   1.72537     -4.154740
   1.72537     -4.154740
   1.78958     -4.145635
   1.85379     -4.116036
   1.91800     -4.068162
   1.98221     -4.006929
   2.04642     -3.930330
   2.11064     -3.847379
   2.17485     -3.756106
   2.23906     -3.657968
   2.30327     -3.555350
   2.36748     -3.433943
   2.43169     -3.283031
   2.49590     -3.114024
   2.56012     -2.932271
   2.62433     -2.740701
   2.68854     -2.561498
   2.75275     -2.504479
   2.81696     -2.470197
   2.88117     -2.217242
   2.94538     -1.929522
   2.94538     -1.929522
   3.02403     -2.301492
   3.10267     -2.493224
   3.18131     -2.450149
   3.25996     -2.391307
   3.33860     -2.441877
   3.41724     -2.457057
   3.49588     -2.424066
   3.57453     -2.345174
   3.65317     -2.230551
   3.73181     -2.088826
   3.81045     -1.930202
   3.88910     -1.765501
   3.96774     -1.605368
   4.04638     -1.459299
   4.12503     -1.331140
   4.20367     -1.224620
   4.28231     -1.148577
   4.36095     -1.187865
   4.43960     -1.224938
   4.43960     -1.224938
   4.50381     -1.200032
   4.56802     -1.144448
   4.63223     -1.212600
   4.69644     -1.304628
   4.76065     -1.414678
   4.82486     -1.539792
   4.88908     -1.736157
   4.95329     -1.966855
   5.01750     -2.228768
   5.08171     -2.515916
   5.14592     -2.822311
   5.21013     -3.139833
   5.27435     -3.464804
   5.33856     -3.486846
   5.40277     -3.112423
   5.46698     -2.759703
   5.53119     -2.672253
   5.59540     -2.741550
   5.65961     -2.772777
   5.65961     -1.224938
   5.70502     -1.212379
   5.75042     -1.175704
   5.79583     -1.155108
   5.84123     -1.214884
   5.88664     -1.296995
   5.93204     -1.406273
   5.97745     -1.536078
   6.02285     -1.691349
   6.06825     -1.867611
   6.11366     -2.064385
   6.15906     -2.276220
   6.20447     -2.503274
   6.24987     -2.744170
   6.29528     -2.989452
   6.34068     -3.241324
   6.38608     -3.497227
   6.43149     -3.751701
   6.47689     -3.996405
   6.52230     -4.154740
 
# Band-Index   16
   6.52230     -4.113449
   6.47689     -3.996405
   6.43149     -3.751701
   6.38608     -3.497227
   6.34068     -3.241324
   6.29528     -2.989452
   6.24987     -2.744170
   6.20447     -2.503274
   6.15906     -2.276220
   6.11366     -2.064385
   6.06825     -1.867611
   6.02285     -1.691349
   5.97745     -1.536078
   5.93204     -1.406273
   5.88664     -1.296995
   5.84123     -1.214884
   5.79583     -1.155108
   5.75042     -1.120234
   5.70502     -1.098286
   5.65961     -1.091013
   5.65961     -1.918321
   5.59540     -2.153207
   5.53119     -2.439002
   5.46698     -2.568042
   5.40277     -2.440258
   5.33856     -2.298613
   5.27435     -2.201473
   5.21013     -2.172780
   5.14592     -2.111669
   5.08171     -2.021335
   5.01750     -1.913844
   4.95329     -1.790961
   4.88908     -1.663499
   4.82486     -1.535808
   4.76065     -1.379807
   4.69644     -1.258734
   4.63223     -1.176100
   4.56802     -1.135487
   4.50381     -1.105383
   4.43960     -1.091013
   4.43960     -1.091013
   4.36095     -1.106368
   4.28231     -1.148577
   4.20367     -1.224620
   4.12503     -1.331140
   4.04638     -1.459299
   3.96774     -1.605368
   3.88910     -1.765501
   3.81045     -1.930202
   3.73181     -2.088826
   3.65317     -2.230551
   3.57453     -2.345174
   3.49588     -2.424066
   3.41724     -2.457056
   3.33860     -2.441877
   3.25996     -2.379898
   3.18131     -2.274994
   3.10267     -2.144809
   3.02403     -2.025166
   2.94538     -1.929522
   2.94538     -1.929522
   2.88117     -2.070572
   2.81696     -2.215633
   2.75275     -2.361004
   2.68854     -2.503230
   2.62433     -2.642233
   2.56012     -2.777811
   2.49590     -2.909507
   2.43169     -3.038144
   2.36748     -3.161441
   2.30327     -3.280637
   2.23906     -3.395600
   2.17485     -3.507035
   2.11064     -3.613909
   2.04642     -3.717588
   1.98221     -3.817097
   1.91800     -3.913616
   1.85379     -4.004927
   1.78958     -4.080127
   1.72537     -4.113449
   1.72537     -4.113449
   1.67996     -4.095755
   1.63456     -4.048384
   1.58915     -3.981196
   1.54375     -3.901536
   1.49834     -3.810799
   1.45294     -3.713684
   1.40754     -3.608485
   1.36213     -3.496258
   1.31673     -3.370396
   1.27132     -3.205578
   1.22592     -3.033057
   1.18051     -2.853955
   1.13511     -2.670912
   1.08971     -2.488960
   1.04430     -2.543052
   0.99890     -2.387756
   0.95349     -2.229008
   0.90809     -2.067806
   0.86268     -1.918321
   0.86268     -1.918321
   0.81728     -1.918221
   0.77187     -1.918136
   0.72647     -1.917997
   0.68107     -1.918329
   0.63566     -1.934459
   0.59026     -1.952032
   0.54485     -1.971196
   0.49945     -1.991288
   0.45404     -2.011640
   0.40864     -2.031498
   0.36324     -2.050492
   0.31783     -2.065398
   0.27243     -2.079098
   0.22702     -2.089565
   0.18162     -2.095893
   0.13621     -2.086131
   0.09081     -2.061379
   0.04540     -2.011805
   0.00000     -1.929522
 
# Band-Index   17
   0.00000     -1.929522
   0.04540     -2.011805
   0.09081     -2.061379
   0.13621     -2.086131
   0.18162     -2.095893
   0.22702     -2.089565
   0.27243     -2.079098
   0.31783     -2.065398
   0.36324     -2.050491
   0.40864     -2.031498
   0.45404     -2.011640
   0.49945     -1.991288
   0.54485     -1.971196
   0.59026     -1.952032
   0.63566     -1.934459
   0.68107     -1.918329
   0.72647     -1.906019
   0.77187     -1.896718
   0.81728     -1.890990
   0.86268     -1.889157
   0.86268     -1.889157
   0.90809     -1.922406
   0.95349     -2.014941
   0.99890     -2.149990
   1.04430     -2.313673
   1.08971     -2.467275
   1.13511     -2.344703
   1.18051     -2.208659
   1.22592     -2.063765
   1.27132     -1.913301
   1.31673     -1.764925
   1.36213     -1.619243
   1.40754     -1.482693
   1.45294     -1.357564
   1.49834     -1.250503
   1.54375     -1.162857
   1.58915     -1.097068
   1.63456     -1.053361
   1.67996     -1.027663
   1.72537     -1.019318
   1.72537     -1.019318
   1.78958     -1.035675
   1.85379     -1.083340
   1.91800     -1.159416
   1.98221     -1.261457
   2.04642     -1.379774
   2.11064     -1.514962
   2.17485     -1.654454
   2.23906     -1.793067
   2.30327     -1.928165
   2.36748     -2.051268
   2.43169     -2.161126
   2.49590     -2.252963
   2.56012     -2.327983
   2.62433     -2.381972
   2.68854     -2.402439
   2.75275     -2.288235
   2.81696     -2.116113
   2.88117     -1.981229
   2.94538     -1.929522
   2.94538     -1.929522
   3.02403     -2.025166
   3.10267     -2.144809
   3.18131     -2.274994
   3.25996     -2.379898
   3.33860     -2.319438
   3.41724     -2.230986
   3.49588     -2.134725
   3.57453     -2.027322
   3.65317     -1.912297
   3.73181     -1.794533
   3.81045     -1.671836
   3.88910     -1.554118
   3.96774     -1.444899
   4.04638     -1.344669
   4.12503     -1.256295
   4.20367     -1.185246
   4.28231     -1.131564
   4.36095     -1.106368
   4.43960     -1.091013
   4.43960     -1.091013
   4.50381     -1.099286
   4.56802     -1.115234
   4.63223     -1.138618
   4.69644     -1.179335
   4.76065     -1.232826
   4.82486     -1.303031
   4.88908     -1.387520
   4.95329     -1.487001
   5.01750     -1.600089
   5.08171     -1.725584
   5.14592     -1.862158
   5.21013     -2.003676
   5.27435     -2.151781
   5.33856     -2.193341
   5.40277     -2.149715
   5.46698     -2.076096
   5.53119     -1.990736
   5.59540     -1.918238
   5.65961     -1.889157
   5.65961     -1.091013
   5.70502     -1.098286
   5.75042     -1.120234
   5.79583     -1.117945
   5.84123     -1.081416
   5.88664     -1.077623
   5.93204     -1.073410
   5.97745     -1.063443
   6.02285     -1.058184
   6.06825     -1.052403
   6.11366     -1.046766
   6.15906     -1.040261
   6.20447     -1.034891
   6.24987     -1.033327
   6.29528     -1.028019
   6.34068     -1.024244
   6.38608     -1.023514
   6.43149     -1.021357
   6.47689     -1.019759
   6.52230     -1.019318
 
# Band-Index   18
   6.52230     -0.487212
   6.47689     -0.488392
   6.43149     -0.492099
   6.38608     -0.498292
   6.34068     -0.507370
   6.29528     -0.519886
   6.24987     -0.536523
   6.20447     -0.558255
   6.15906     -0.586435
   6.11366     -0.622722
   6.06825     -0.668977
   6.02285     -0.726777
   5.97745     -0.796491
   5.93204     -0.876344
   5.88664     -0.961177
   5.84123     -1.044222
   5.79583     -1.084436
   5.75042     -1.089115
   5.70502     -1.090535
   5.65961     -1.091013
   5.65961     -1.889157
   5.59540     -1.688988
   5.53119     -1.504564
   5.46698     -1.342613
   5.40277     -1.198267
   5.33856     -1.064519
   5.27435     -0.938366
   5.21013     -0.817683
   5.14592     -0.701504
   5.08171     -0.589955
   5.01750     -0.483514
   4.95329     -0.486146
   4.88908     -0.572873
   4.82486     -0.668555
   4.76065     -0.776966
   4.69644     -0.897916
   4.63223     -1.020667
   4.56802     -1.110661
   4.50381     -1.096355
   4.43960     -1.091013
   4.43960     -1.091013
   4.36095     -1.102094
   4.28231     -1.087285
   4.20367     -0.958041
   4.12503     -0.854547
   4.04638     -0.817044
   3.96774     -0.843402
   3.88910     -0.913086
   3.81045     -1.008516
   3.73181     -1.118277
   3.65317     -1.234547
   3.57453     -1.351324
   3.49588     -1.464599
   3.41724     -1.570458
   3.33860     -1.666107
   3.25996     -1.749413
   3.18131     -1.817729
   3.10267     -1.868856
   3.02403     -1.900752
   2.94538     -1.913925
   2.94538     -1.913925
   2.88117     -1.861788
   2.81696     -1.741627
   2.75275     -1.590460
   2.68854     -1.428110
   2.62433     -1.266117
   2.56012     -1.111083
   2.49590     -0.969599
   2.43169     -0.842677
   2.36748     -0.733615
   2.30327     -0.644425
   2.23906     -0.575302
   2.17485     -0.526140
   2.11064     -0.494909
   2.04642     -0.478441
   1.98221     -0.473808
   1.91800     -0.475934
   1.85379     -0.481052
   1.78958     -0.485537
   1.72537     -0.487212
   1.72537     -0.487212
   1.67996     -0.486275
   1.63456     -0.482376
   1.58915     -0.472974
   1.54375     -0.455850
   1.49834     -0.429704
   1.45294     -0.395139
   1.40754     -0.352996
   1.36213     -0.305405
   1.31673     -0.368156
   1.27132     -0.497188
   1.22592     -0.634726
   1.18051     -0.779530
   1.13511     -0.930068
   1.08971     -1.085987
   1.04430     -1.247293
   0.99890     -1.409648
   0.95349     -1.573783
   0.90809     -1.738351
   0.86268     -1.889157
   0.86268     -1.889157
   0.81728     -1.890990
   0.77187     -1.896718
   0.72647     -1.906019
   0.68107     -1.917807
   0.63566     -1.917571
   0.59026     -1.917297
   0.54485     -1.916990
   0.49945     -1.916661
   0.45404     -1.916299
   0.40864     -1.915952
   0.36324     -1.915629
   0.31783     -1.915222
   0.27243     -1.914922
   0.22702     -1.914653
   0.18162     -1.914451
   0.13621     -1.914167
   0.09081     -1.914033
   0.04540     -1.913953
   0.00000     -1.913925
 
# Band-Index   19
   0.00000     -1.913925
   0.04540     -1.799781
   0.09081     -1.656758
   0.13621     -1.505159
   0.18162     -1.349718
   0.22702     -1.191787
   0.27243     -1.037433
   0.31783     -0.887222
   0.36324     -0.742350
   0.40864     -0.605189
   0.45404     -0.476644
   0.49945     -0.357342
   0.54485     -0.249870
   0.59026     -0.170820
   0.63566     -0.170894
   0.68107     -0.170956
   0.72647     -0.171005
   0.77187     -0.171039
   0.81728     -0.171058
   0.86268     -0.171316
   0.86268     -0.171316
   0.90809     -0.141033
   0.95349     -0.059282
   0.99890      0.055791
   1.04430      0.045038
   1.08971      0.005176
   1.13511     -0.040452
   1.18051     -0.091240
   1.22592     -0.144486
   1.27132     -0.198988
   1.31673     -0.253505
   1.36213     -0.248749
   1.40754     -0.140172
   1.45294     -0.043470
   1.49834      0.041249
   1.54375      0.110644
   1.58915      0.165726
   1.63456      0.205512
   1.67996      0.229885
   1.72537      0.238296
   1.72537      0.238296
   1.78958      0.227755
   1.85379      0.198423
   1.91800      0.150606
   1.98221      0.085305
   2.04642      0.002878
   2.11064     -0.092205
   2.17485     -0.199678
   2.23906     -0.317078
   2.30327     -0.443812
   2.36748     -0.577363
   2.43169     -0.717161
   2.49590     -0.860054
   2.56012     -1.027975
   2.62433     -1.202846
   2.68854     -1.380561
   2.75275     -1.556461
   2.81696     -1.721555
   2.88117     -1.856129
   2.94538     -1.913925
   2.94538     -1.913925
   3.02403     -1.782272
   3.10267     -1.597828
   3.18131     -1.396870
   3.25996     -1.198020
   3.33860     -1.009153
   3.41724     -0.835366
   3.49588     -0.680257
   3.57453     -0.543575
   3.65317     -0.425847
   3.73181     -0.326964
   3.81045     -0.242720
   3.88910     -0.171912
   3.96774     -0.113313
   4.04638     -0.064140
   4.12503     -0.023214
   4.20367      0.009852
   4.28231      0.034386
   4.36095      0.049441
   4.43960      0.054653
   4.43960      0.054653
   4.50381      0.046972
   4.56802      0.024282
   4.63223     -0.013157
   4.69644     -0.064603
   4.76065     -0.128752
   4.82486     -0.204223
   4.88908     -0.288938
   4.95329     -0.382603
   5.01750     -0.405204
   5.08171     -0.327515
   5.14592     -0.252222
   5.21013     -0.178830
   5.27435     -0.110015
   5.33856     -0.046068
   5.40277      0.010516
   5.46698      0.057380
   5.53119      0.054417
   5.59540     -0.110958
   5.65961     -0.171316
   5.65961      0.054653
   5.70502      0.050877
   5.75042      0.040498
   5.79583      0.025844
   5.84123      0.010160
   5.88664     -0.002712
   5.93204     -0.010346
   5.97745     -0.009561
   6.02285     -0.000622
   6.06825      0.016869
   6.11366      0.039711
   6.15906      0.068466
   6.20447      0.098388
   6.24987      0.127478
   6.29528      0.157947
   6.34068      0.184513
   6.38608      0.206884
   6.43149      0.223662
   6.47689      0.234749
   6.52230      0.238296
 
# Band-Index   20
   6.52230      0.238296
   6.47689      0.234749
   6.43149      0.223662
   6.38608      0.206884
   6.34068      0.184513
   6.29528      0.157947
   6.24987      0.127478
   6.20447      0.098388
   6.15906      0.068466
   6.11366      0.039711
   6.06825      0.016869
   6.02285     -0.000622
   5.97745     -0.009561
   5.93204     -0.010346
   5.88664     -0.002712
   5.84123      0.010160
   5.79583      0.025844
   5.75042      0.040498
   5.70502      0.050877
   5.65961      0.054653
   5.65961      0.120110
   5.59540      0.113642
   5.53119      0.091932
   5.46698      0.110460
   5.40277      0.102202
   5.33856      0.092365
   5.27435      0.081386
   5.21013      0.070043
   5.14592      0.058192
   5.08171      0.048358
   5.01750      0.039700
   4.95329      0.033470
   4.88908      0.030256
   4.82486      0.030231
   4.76065      0.033383
   4.69644      0.038349
   4.63223      0.044223
   4.56802      0.049572
   4.50381      0.053283
   4.43960      0.054653
   4.43960      0.054653
   4.36095      0.049441
   4.28231      0.034386
   4.20367      0.009852
   4.12503     -0.023214
   4.04638     -0.064140
   3.96774     -0.113313
   3.88910     -0.171912
   3.81045     -0.242720
   3.73181     -0.326964
   3.65317     -0.425847
   3.57453     -0.543575
   3.49588     -0.680256
   3.41724     -0.835366
   3.33860     -1.009153
   3.25996     -1.198020
   3.18131     -1.396870
   3.10267     -1.597828
   3.02403     -1.782272
   2.94538     -1.913925
   2.94538     -1.913925
   2.88117     -1.769748
   2.81696     -1.615554
   2.75275     -1.461929
   2.68854     -1.309458
   2.62433     -1.157737
   2.56012     -1.007677
   2.49590     -0.858405
   2.43169     -0.696075
   2.36748     -0.542624
   2.30327     -0.401064
   2.23906     -0.271507
   2.17485     -0.156382
   2.11064     -0.052613
   2.04642      0.035216
   1.98221      0.107776
   1.91800      0.164699
   1.85379      0.205548
   1.78958      0.230097
   1.72537      0.238296
   1.72537      0.238296
   1.67996      0.237005
   1.63456      0.233734
   1.58915      0.229165
   1.54375      0.222919
   1.49834      0.215902
   1.45294      0.207093
   1.40754      0.197589
   1.36213      0.187911
   1.31673      0.178194
   1.27132      0.168865
   1.22592      0.159807
   1.18051      0.151414
   1.13511      0.143726
   1.08971      0.137088
   1.04430      0.131291
   0.99890      0.077585
   0.95349      0.101416
   0.90809      0.116087
   0.86268      0.120110
   0.86268      0.120110
   0.81728      0.113229
   0.77187      0.089723
   0.72647      0.050796
   0.68107     -0.003161
   0.63566     -0.072126
   0.59026     -0.154486
   0.54485     -0.249870
   0.49945     -0.357342
   0.45404     -0.476643
   0.40864     -0.605189
   0.36324     -0.742350
   0.31783     -0.887222
   0.27243     -1.037433
   0.22702     -1.191786
   0.18162     -1.349718
   0.13621     -1.505159
   0.09081     -1.656758
   0.04540     -1.799781
   0.00000     -1.913925
 
# Band-Index   21
   0.00000     -1.906318
   0.04540     -1.734860
   0.09081     -1.558164
   0.13621     -1.383665
   0.18162     -1.193808
   0.22702     -0.982568
   0.27243     -0.751547
   0.31783     -0.503104
   0.36324     -0.239571
   0.40864     -0.170378
   0.45404     -0.170472
   0.49945     -0.170645
   0.54485     -0.170736
   0.59026     -0.154486
   0.63566     -0.072126
   0.68107     -0.003161
   0.72647      0.050796
   0.77187      0.089723
   0.81728      0.113229
   0.86268      0.120110
   0.86268      0.120110
   0.90809      0.121703
   0.95349      0.123621
   0.99890      0.126815
   1.04430      0.185564
   1.08971      0.316022
   1.13511      0.438025
   1.18051      0.546318
   1.22592      0.639811
   1.27132      0.718319
   1.31673      0.782773
   1.36213      0.835623
   1.40754      0.878463
   1.45294      0.912335
   1.49834      0.939170
   1.54375      0.960204
   1.58915      0.975484
   1.63456      0.985739
   1.67996      0.992203
   1.72537      0.994529
   1.72537      0.994529
   1.78958      0.990175
   1.85379      0.977898
   1.91800      0.957181
   1.98221      0.926761
   2.04642      0.886994
   2.11064      0.836227
   2.17485      0.773467
   2.23906      0.699245
   2.30327      0.610140
   2.36748      0.504347
   2.43169      0.375754
   2.49590      0.211472
   2.56012     -0.010887
   2.62433     -0.296215
   2.68854     -0.617698
   2.75275     -0.948289
   2.81696     -1.275382
   2.88117     -1.598072
   2.94538     -1.906318
   2.94538     -1.906318
   3.02403     -1.504174
   3.10267     -1.068551
   3.18131     -0.604455
   3.25996     -0.116829
   3.33860      0.384290
   3.41724      0.878797
   3.49588      1.338328
   3.57453      1.719082
   3.65317      1.947979
   3.73181      1.956134
   3.81045      1.744818
   3.88910      1.390288
   3.96774      0.990313
   4.04638      0.619775
   4.12503      0.335983
   4.20367      0.167824
   4.28231      0.090446
   4.36095      0.061476
   4.43960      0.054653
   4.43960      0.054653
   4.50381      0.061260
   4.56802      0.085876
   4.63223      0.141178
   4.69644      0.245523
   4.76065      0.414194
   4.82486      0.650329
   4.88908      0.940957
   4.95329      1.260918
   5.01750      1.584533
   5.08171      1.889227
   5.14592      1.957190
   5.21013      1.599666
   5.27435      1.247166
   5.33856      0.906202
   5.40277      0.584921
   5.46698      0.295299
   5.53119      0.116248
   5.59540      0.119830
   5.65961      0.120110
   5.65961      0.054653
   5.70502      0.060966
   5.75042      0.080531
   5.79583      0.115290
   5.84123      0.168108
   5.88664      0.243288
   5.93204      0.345281
   5.97745      0.478425
   6.02285      0.642739
   6.06825      0.836477
   6.11366      1.055217
   6.15906      1.293090
   6.20447      1.541205
   6.24987      1.791359
   6.29528      1.747816
   6.34068      1.503118
   6.38608      1.293596
   6.43149      1.132026
   6.47689      1.029786
   6.52230      0.994529
 
# Band-Index   22
   6.52230      2.754076
   6.47689      2.719481
   6.43149      2.616843
   6.38608      2.461362
   6.34068      2.263448
   6.29528      2.036340
   6.24987      2.016222
   6.20447      2.303208
   6.15906      2.593660
   6.11366      2.882576
   6.06825      3.165169
   6.02285      3.433736
   5.97745      3.685901
   5.93204      3.915258
   5.88664      4.122567
   5.84123      4.294947
   5.79583      4.433221
   5.75042      4.529377
   5.70502      4.589838
   5.65961      4.610412
   5.65961      2.450913
   5.59540      2.478405
   5.53119      2.550711
   5.46698      2.582150
   5.40277      2.578337
   5.33856      2.547510
   5.27435      2.474473
   5.21013      2.343562
   5.14592      2.146777
   5.08171      2.315788
   5.01750      2.666590
   4.95329      3.007595
   4.88908      3.331121
   4.82486      3.632838
   4.76065      3.907267
   4.69644      4.147185
   4.63223      4.344970
   4.56802      4.491548
   4.50381      4.579607
   4.43960      4.610412
   4.43960      4.610412
   4.36095      4.579594
   4.28231      4.491984
   4.20367      4.345885
   4.12503      4.150079
   4.04638      3.915613
   3.96774      3.648721
   3.88910      3.354591
   3.81045      3.039051
   3.73181      2.706817
   3.65317      2.364743
   3.57453      2.016263
   3.49588      1.664308
   3.41724      1.315097
   3.33860      0.972367
   3.25996      0.643251
   3.18131      0.340904
   3.10267      0.082309
   3.02403     -0.101764
   2.94538     -0.170374
   2.94538     -0.170374
   2.88117     -0.146913
   2.81696     -0.080024
   2.75275      0.023572
   2.68854      0.158102
   2.62433      0.325937
   2.56012      0.544046
   2.49590      0.827923
   2.43169      1.159044
   2.36748      1.500763
   2.30327      1.824948
   2.23906      2.110449
   2.17485      2.339423
   2.11064      2.510477
   2.04642      2.623166
   1.98221      2.690428
   1.91800      2.726642
   1.85379      2.744125
   1.78958      2.751083
   1.72537      2.754076
   1.72537      2.754076
   1.67996      2.751996
   1.63456      2.748353
   1.58915      2.744618
   1.54375      2.738618
   1.49834      2.729827
   1.45294      2.719871
   1.40754      2.709247
   1.36213      2.696651
   1.31673      2.682656
   1.27132      2.667436
   1.22592      2.651291
   1.18051      2.634862
   1.13511      2.618786
   1.08971      2.603318
   1.04430      2.589966
   0.99890      2.567884
   0.95349      2.504048
   0.90809      2.465937
   0.86268      2.450913
   0.86268      2.450913
   0.81728      2.397279
   0.77187      2.243114
   0.72647      2.023447
   0.68107      1.766849
   0.63566      1.487423
   0.59026      1.198512
   0.54485      0.905124
   0.49945      0.611524
   0.45404      0.321056
   0.40864      0.036694
   0.36324     -0.170285
   0.31783     -0.170400
   0.27243     -0.170320
   0.22702     -0.170241
   0.18162     -0.170277
   0.13621     -0.170227
   0.09081     -0.170188
   0.04540     -0.170381
   0.00000     -0.170374
 
# Band-Index   23
   0.00000     -0.170374
   0.04540     -0.124489
   0.09081      0.003481
   0.13621      0.186826
   0.18162      0.401700
   0.22702      0.632947
   0.27243      0.866490
   0.31783      1.096157
   0.36324      1.316970
   0.40864      1.524315
   0.45404      1.715850
   0.49945      1.889968
   0.54485      2.045115
   0.59026      2.180617
   0.63566      2.295926
   0.68107      2.391898
   0.72647      2.462974
   0.77187      2.516273
   0.81728      2.549600
   0.86268      2.561982
   0.86268      2.561982
   0.90809      2.563920
   0.95349      2.569466
   0.99890      2.578325
   1.04430      2.657964
   1.08971      2.772827
   1.13511      2.910494
   1.18051      3.067929
   1.22592      3.239630
   1.27132      3.420708
   1.31673      3.604570
   1.36213      3.785658
   1.40754      3.958916
   1.45294      4.119191
   1.49834      4.262284
   1.54375      4.383237
   1.58915      4.479773
   1.63456      4.548990
   1.67996      4.591951
   1.72537      4.606434
   1.72537      4.606434
   1.78958      4.577609
   1.85379      4.492636
   1.91800      4.355236
   1.98221      4.168340
   2.04642      3.941271
   2.11064      3.675702
   2.17485      3.382494
   2.23906      3.067158
   2.30327      2.732839
   2.36748      2.386919
   2.43169      2.033096
   2.49590      1.677920
   2.56012      1.323339
   2.62433      0.977597
   2.68854      0.646459
   2.75275      0.342085
   2.81696      0.082113
   2.88117     -0.101902
   2.94538     -0.170374
   2.94538     -0.170374
   3.02403     -0.101764
   3.10267      0.082309
   3.18131      0.340904
   3.25996      0.643251
   3.33860      0.972367
   3.41724      1.315097
   3.49588      1.664308
   3.57453      2.016263
   3.65317      2.364743
   3.73181      2.706817
   3.81045      3.039051
   3.88910      3.354591
   3.96774      3.648721
   4.04638      3.915613
   4.12503      4.150079
   4.20367      4.345885
   4.28231      4.491984
   4.36095      4.579594
   4.43960      4.610412
   4.43960      4.610412
   4.50381      4.600061
   4.56802      4.571955
   4.63223      4.520670
   4.69644      4.450559
   4.76065      4.361100
   4.82486      4.252212
   4.88908      4.128366
   4.95329      3.988798
   5.01750      3.835840
   5.08171      3.669752
   5.14592      3.494902
   5.21013      3.318166
   5.27435      3.139652
   5.33856      2.966409
   5.40277      2.805096
   5.46698      2.663425
   5.53119      2.574438
   5.59540      2.565655
   5.65961      2.561982
   5.65961      4.610412
   5.70502      4.610377
   5.75042      4.610271
   5.79583      4.612115
   5.84123      4.611757
   5.88664      4.611357
   5.93204      4.610749
   5.97745      4.614954
   6.02285      4.614359
   6.06825      4.613990
   6.11366      4.613419
   6.15906      4.613839
   6.20447      4.613316
   6.24987      4.609499
   6.29528      4.609673
   6.34068      4.609244
   6.38608      4.606812
   6.43149      4.606495
   6.47689      4.606501
   6.52230      4.606434
 
# Band-Index   24
   6.52230      6.981281
   6.47689      6.992018
   6.43149      7.022788
   6.38608      7.075277
   6.34068      7.148309
   6.29528      7.238825
   6.24987      7.345554
   6.20447      7.469707
   6.15906      7.604989
   6.11366      7.749918
   6.06825      7.904166
   6.02285      8.064389
   5.97745      8.226425
   5.93204      8.383806
   5.88664      8.539601
   5.84123      8.682648
   5.79583      8.807027
   5.75042      8.903521
   5.70502      8.964425
   5.65961      8.986076
   5.65961      4.454299
   5.59540      4.490733
   5.53119      4.596702
   5.46698      4.766935
   5.40277      4.990830
   5.33856      5.257947
   5.27435      5.557054
   5.21013      5.877910
   5.14592      6.210920
   5.08171      6.549555
   5.01750      6.887782
   4.95329      7.219366
   4.88908      7.528081
   4.82486      7.778112
   4.76065      8.049351
   4.69644      8.325240
   4.63223      8.579749
   4.56802      8.793321
   4.50381      8.934506
   4.43960      8.986076
   4.43960      8.986076
   4.36095      8.889305
   4.28231      8.628861
   4.20367      8.247870
   4.12503      7.800233
   4.04638      7.327227
   3.96774      6.857108
   3.88910      6.432170
   3.81045      6.113795
   3.73181      5.984631
   3.65317      6.114928
   3.57453      6.494434
   3.49588      7.045921
   3.41724      7.689466
   3.33860      8.362679
   3.25996      9.017724
   3.18131      9.450490
   3.10267      9.811818
   3.02403     10.204576
   2.94538     10.530438
   2.94538     10.530438
   2.88117     10.207728
   2.81696      9.814841
   2.75275      9.445986
   2.68854      9.104630
   2.62433      8.760089
   2.56012      8.320159
   2.49590      7.894386
   2.43169      7.499263
   2.36748      7.153672
   2.30327      6.872940
   2.23906      6.671794
   2.17485      6.558463
   2.11064      6.533027
   2.04642      6.580549
   1.98221      6.672143
   1.91800      6.784320
   1.85379      6.885581
   1.78958      6.955481
   1.72537      6.981281
   1.72537      6.981281
   1.67996      6.963166
   1.63456      6.911530
   1.58915      6.828716
   1.54375      6.714763
   1.49834      6.572856
   1.45294      6.408356
   1.40754      6.227852
   1.36213      6.032858
   1.31673      5.830707
   1.27132      5.626212
   1.22592      5.422843
   1.18051      5.226802
   1.13511      5.042643
   1.08971      4.876020
   1.04430      4.731316
   0.99890      4.613274
   0.95349      4.526207
   0.90809      4.472678
   0.86268      4.454299
   0.86268      4.454299
   0.81728      4.515783
   0.77187      4.682071
   0.72647      4.920034
   0.68107      5.203477
   0.63566      5.514424
   0.59026      5.844426
   0.54485      6.187951
   0.49945      6.541642
   0.45404      6.903273
   0.40864      7.271071
   0.36324      7.644518
   0.31783      8.020572
   0.27243      8.398652
   0.22702      8.776733
   0.18162      9.155460
   0.13621      9.533760
   0.09081      9.906815
   0.04540     10.266171
   0.00000     10.530438
