#K-Path(1/A) Energy-Level(eV)
# NKPTS & NBANDS: 120  24
# Band-Index    1
   0.00000    -19.959509
   0.04542    -19.954128
   0.09085    -19.940730
   0.13627    -19.920848
   0.18170    -19.894416
   0.22712    -19.857884
   0.27255    -19.815673
   0.31797    -19.767008
   0.36340    -19.713017
   0.40882    -19.653468
   0.45425    -19.589815
   0.49967    -19.523174
   0.54510    -19.454938
   0.59052    -19.386772
   0.63595    -19.320747
   0.68137    -19.258735
   0.72680    -19.205877
   0.77222    -19.163719
   0.81765    -19.136493
   0.86307    -19.127037
   0.86307    -19.127037
   0.90850    -19.123647
   0.95392    -19.113509
   0.99935    -19.096770
   1.04477    -19.073897
   1.09020    -19.044582
   1.13562    -19.009896
   1.18105    -18.970151
   1.22647    -18.925898
   1.27190    -18.877600
   1.31732    -18.826846
   1.36275    -18.773818
   1.40817    -18.719790
   1.45360    -18.666112
   1.49902    -18.613404
   1.54445    -18.565117
   1.58987    -18.523201
   1.63530    -18.489771
   1.68072    -18.467591
   1.72615    -18.459879
   1.72615    -18.459879
   1.79039    -18.475423
   1.85463    -18.519578
   1.91887    -18.587104
   1.98311    -18.674617
   2.04735    -18.776643
   2.11159    -18.888609
   2.17583    -19.007044
   2.24007    -19.127792
   2.30431    -19.248962
   2.36855    -19.367065
   2.43279    -19.478812
   2.49703    -19.583239
   2.56127    -19.677466
   2.62551    -19.760100
   2.68975    -19.829510
   2.75399    -19.884694
   2.81823    -19.924924
   2.88247    -19.950079
   2.94671    -19.959509
   2.94671    -19.959509
   3.02539    -19.945401
   3.10407    -19.908684
   3.18275    -19.849886
   3.26143    -19.766943
   3.34010    -19.664281
   3.41878    -19.543052
   3.49746    -19.406048
   3.57614    -19.255612
   3.65482    -19.097613
   3.73350    -18.933447
   3.81217    -18.768481
   3.89085    -18.607178
   3.96953    -18.455934
   4.04821    -18.317099
   4.12689    -18.196693
   4.20556    -18.097698
   4.28424    -18.024223
   4.36292    -17.979956
   4.44160    -17.964915
   4.44160    -17.964915
   4.50584    -17.974366
   4.57008    -18.001297
   4.63432    -18.045838
   4.69856    -18.106458
   4.76280    -18.180252
   4.82704    -18.264422
   4.89128    -18.354296
   4.95552    -18.448930
   5.01976    -18.545309
   5.08400    -18.640223
   5.14824    -18.732576
   5.21249    -18.817778
   5.27673    -18.895690
   5.34097    -18.963967
   5.40521    -19.021057
   5.46945    -19.066441
   5.53369    -19.100001
   5.59793    -19.120254
   5.66217    -19.127037
   5.66217    -17.964915
   5.70759    -17.968637
   5.75302    -17.979389
   5.79844    -17.996478
   5.84387    -18.020766
   5.88929    -18.050513
   5.93472    -18.084252
   5.98014    -18.121902
   6.02557    -18.161787
   6.07099    -18.202480
   6.11642    -18.243397
   6.16184    -18.282556
   6.20727    -18.320144
   6.25269    -18.355113
   6.29812    -18.385708
   6.34354    -18.411455
   6.38897    -18.432779
   6.43439    -18.447973
   6.47982    -18.456773
   6.52524    -18.459879
 
# Band-Index    2
   6.52524    -17.918168
   6.47982    -17.918471
   6.43439    -17.919891
   6.38897    -17.921373
   6.34354    -17.922862
   6.29812    -17.925646
   6.25269    -17.928551
   6.20727    -17.931275
   6.16184    -17.934767
   6.11642    -17.939196
   6.07099    -17.942863
   6.02557    -17.946719
   5.98014    -17.950169
   5.93472    -17.953351
   5.88929    -17.956625
   5.84387    -17.959075
   5.79844    -17.961035
   5.75302    -17.963471
   5.70759    -17.964613
   5.66217    -17.964915
   5.66217    -18.141910
   5.59793    -18.140134
   5.53369    -18.131656
   5.46945    -18.117998
   5.40521    -18.100634
   5.34097    -18.080244
   5.27673    -18.058473
   5.21249    -18.035885
   5.14824    -18.015242
   5.08400    -17.995938
   5.01976    -17.980630
   4.95552    -17.968510
   4.89128    -17.961390
   4.82704    -17.957838
   4.76280    -17.956716
   4.69856    -17.957392
   4.63432    -17.959031
   4.57008    -17.961771
   4.50584    -17.964323
   4.44160    -17.964915
   4.44160    -17.964915
   4.36292    -17.961532
   4.28424    -17.951972
   4.20556    -17.938128
   4.12689    -17.919908
   4.04821    -17.897643
   3.96953    -17.872094
   3.89085    -17.844934
   3.81217    -17.818396
   3.73350    -17.791696
   3.65482    -17.766608
   3.57614    -17.744257
   3.49746    -17.724760
   3.41878    -17.708280
   3.34010    -17.695620
   3.26143    -17.685731
   3.18275    -17.678606
   3.10407    -17.674647
   3.02539    -17.671964
   2.94671    -17.671103
   2.94671    -17.671103
   2.88247    -17.672915
   2.81823    -17.678310
   2.75399    -17.687108
   2.68975    -17.698514
   2.62551    -17.712944
   2.56127    -17.729397
   2.49703    -17.748351
   2.43279    -17.768719
   2.36855    -17.788668
   2.30431    -17.809138
   2.24007    -17.829033
   2.17583    -17.849020
   2.11159    -17.865519
   2.04735    -17.880372
   1.98311    -17.893898
   1.91887    -17.903628
   1.85463    -17.911886
   1.79039    -17.916590
   1.72615    -17.918168
   1.72615    -17.918168
   1.68072    -17.919789
   1.63530    -17.924894
   1.58987    -17.932718
   1.54445    -17.943095
   1.49902    -17.956623
   1.45360    -17.971827
   1.40817    -17.988626
   1.36275    -18.006780
   1.31732    -18.025271
   1.27190    -18.043240
   1.22647    -18.061491
   1.18105    -18.078612
   1.13562    -18.094272
   1.09020    -18.108413
   1.04477    -18.120589
   0.99935    -18.130170
   0.95392    -18.137258
   0.90850    -18.141566
   0.86307    -18.141910
   0.86307    -18.141910
   0.81765    -18.135917
   0.77222    -18.115674
   0.72680    -18.084945
   0.68137    -18.047020
   0.63595    -18.005219
   0.59052    -17.961983
   0.54510    -17.919348
   0.49967    -17.878719
   0.45425    -17.841112
   0.40882    -17.807010
   0.36340    -17.776623
   0.31797    -17.750979
   0.27255    -17.728738
   0.22712    -17.710813
   0.18170    -17.696318
   0.13627    -17.685138
   0.09085    -17.677287
   0.04542    -17.672633
   0.00000    -17.671103
 
# Band-Index    3
   0.00000    -17.671103
   0.04542    -17.670140
   0.09085    -17.667266
   0.13627    -17.662574
   0.18170    -17.656160
   0.22712    -17.647638
   0.27255    -17.638845
   0.31797    -17.628390
   0.36340    -17.615469
   0.40882    -17.603576
   0.45425    -17.591398
   0.49967    -17.579257
   0.54510    -17.567608
   0.59052    -17.556673
   0.63595    -17.546772
   0.68137    -17.538200
   0.72680    -17.531219
   0.77222    -17.526045
   0.81765    -17.522838
   0.86307    -17.519563
   0.86307    -17.519563
   0.90850    -17.523479
   0.95392    -17.528723
   0.99935    -17.537371
   1.04477    -17.549338
   1.09020    -17.564506
   1.13562    -17.582734
   1.18105    -17.604492
   1.22647    -17.628623
   1.27190    -17.654983
   1.31732    -17.684675
   1.36275    -17.715182
   1.40817    -17.746656
   1.45360    -17.779522
   1.49902    -17.813460
   1.54445    -17.844524
   1.58987    -17.873478
   1.63530    -17.896914
   1.68072    -17.912515
   1.72615    -17.918168
   1.72615    -17.918168
   1.79039    -17.912319
   1.85463    -17.894650
   1.91887    -17.869065
   1.98311    -17.840612
   2.04735    -17.808610
   2.11159    -17.778489
   2.17583    -17.750321
   2.24007    -17.724734
   2.30431    -17.703725
   2.36855    -17.687151
   2.43279    -17.675035
   2.49703    -17.667024
   2.56127    -17.662390
   2.62551    -17.661396
   2.68975    -17.662848
   2.75399    -17.665765
   2.81823    -17.668615
   2.88247    -17.670438
   2.94671    -17.671103
   2.94671    -17.671103
   3.02539    -17.671964
   3.10407    -17.674647
   3.18275    -17.678606
   3.26143    -17.685731
   3.34010    -17.695620
   3.41878    -17.708280
   3.49746    -17.724760
   3.57614    -17.744257
   3.65482    -17.766608
   3.73350    -17.791696
   3.81217    -17.818396
   3.89085    -17.844934
   3.96953    -17.872094
   4.04821    -17.897642
   4.12689    -17.919908
   4.20556    -17.938128
   4.28424    -17.951972
   4.36292    -17.961532
   4.44160    -17.964915
   4.44160    -17.964915
   4.50584    -17.962292
   4.57008    -17.953581
   4.63432    -17.940215
   4.69856    -17.923072
   4.76280    -17.900944
   4.82704    -17.874317
   4.89128    -17.844601
   4.95552    -17.811391
   5.01976    -17.777606
   5.08400    -17.741547
   5.14824    -17.705104
   5.21249    -17.668217
   5.27673    -17.634214
   5.34097    -17.601911
   5.40521    -17.574652
   5.46945    -17.552251
   5.53369    -17.535559
   5.59793    -17.525239
   5.66217    -17.519563
   5.66217    -17.964915
   5.70759    -17.964613
   5.75302    -17.963471
   5.79844    -17.961035
   5.84387    -17.959075
   5.88929    -17.956625
   5.93472    -17.953351
   5.98014    -17.950169
   6.02557    -17.946719
   6.07099    -17.942863
   6.11642    -17.939196
   6.16184    -17.934767
   6.20727    -17.931275
   6.25269    -17.928551
   6.29812    -17.925646
   6.34354    -17.922862
   6.38897    -17.921373
   6.43439    -17.919891
   6.47982    -17.918471
   6.52524    -17.918168
 
# Band-Index    4
   6.52524    -13.543895
   6.47982    -13.542369
   6.43439    -13.537841
   6.38897    -13.530409
   6.34354    -13.520273
   6.29812    -13.507762
   6.25269    -13.493106
   6.20727    -13.476702
   6.16184    -13.459069
   6.11642    -13.440668
   6.07099    -13.421941
   6.02557    -13.403503
   5.98014    -13.385723
   5.93472    -13.369157
   5.88929    -13.354263
   5.84387    -13.341467
   5.79844    -13.331118
   5.75302    -13.323520
   5.70759    -13.318899
   5.66217    -13.317334
   5.66217    -13.604426
   5.59793    -13.602841
   5.53369    -13.598064
   5.46945    -13.590168
   5.40521    -13.579298
   5.34097    -13.565530
   5.27673    -13.549126
   5.21249    -13.530318
   5.14824    -13.509530
   5.08400    -13.487095
   5.01976    -13.463622
   4.95552    -13.439639
   4.89128    -13.415919
   4.82704    -13.393163
   4.76280    -13.372089
   4.69856    -13.353526
   4.63432    -13.338193
   4.57008    -13.326774
   4.50584    -13.319729
   4.44160    -13.317334
   4.44160    -13.317334
   4.36292    -13.319852
   4.28424    -13.327578
   4.20556    -13.341076
   4.12689    -13.360699
   4.04821    -13.385825
   3.96953    -13.414278
   3.89085    -13.442679
   3.81217    -13.467726
   3.73350    -13.486533
   3.65482    -13.497374
   3.57614    -13.499602
   3.49746    -13.493613
   3.41878    -13.480668
   3.34010    -13.463002
   3.26143    -13.443290
   3.18275    -13.424793
   3.10407    -13.410899
   3.02539    -13.403795
   2.94671    -13.402004
   2.94671    -13.402004
   2.88247    -13.403848
   2.81823    -13.410696
   2.75399    -13.424142
   2.68975    -13.443021
   2.62551    -13.464546
   2.56127    -13.485890
   2.49703    -13.504806
   2.43279    -13.519635
   2.36855    -13.529598
   2.30431    -13.534969
   2.24007    -13.536930
   2.17583    -13.537156
   2.11159    -13.537079
   2.04735    -13.537565
   1.98311    -13.538823
   1.91887    -13.540507
   1.85463    -13.542221
   1.79039    -13.543452
   1.72615    -13.543895
   1.72615    -13.543895
   1.68072    -13.543672
   1.63530    -13.543079
   1.58987    -13.542303
   1.54445    -13.541677
   1.49902    -13.541589
   1.45360    -13.542388
   1.40817    -13.544392
   1.36275    -13.547766
   1.31732    -13.552493
   1.27190    -13.558354
   1.22647    -13.565088
   1.18105    -13.572261
   1.13562    -13.579456
   1.09020    -13.586301
   1.04477    -13.592413
   0.99935    -13.597478
   0.95392    -13.601287
   0.90850    -13.603642
   0.86307    -13.604426
   0.86307    -13.604426
   0.81765    -13.602827
   0.77222    -13.598039
   0.72680    -13.590218
   0.68137    -13.579598
   0.63595    -13.566506
   0.59052    -13.551309
   0.54510    -13.534456
   0.49967    -13.516427
   0.45425    -13.497698
   0.40882    -13.478845
   0.36340    -13.460351
   0.31797    -13.442751
   0.27255    -13.430785
   0.22712    -13.422552
   0.18170    -13.415459
   0.13627    -13.409669
   0.09085    -13.405426
   0.04542    -13.402852
   0.00000    -13.402004
 
# Band-Index    5
   0.00000    -13.402004
   0.04542    -13.402852
   0.09085    -13.405426
   0.13627    -13.409668
   0.18170    -13.415459
   0.22712    -13.422552
   0.27255    -13.430785
   0.31797    -13.439941
   0.36340    -13.449700
   0.40882    -13.459859
   0.45425    -13.470113
   0.49967    -13.480170
   0.54510    -13.489774
   0.59052    -13.498662
   0.63595    -13.506602
   0.68137    -13.513372
   0.72680    -13.518846
   0.77222    -13.522850
   0.81765    -13.525293
   0.86307    -13.526089
   0.86307    -13.526089
   0.90850    -13.526038
   0.95392    -13.525816
   0.99935    -13.525452
   1.04477    -13.524960
   1.09020    -13.524343
   1.13562    -13.523625
   1.18105    -13.522838
   1.22647    -13.521977
   1.27190    -13.521079
   1.31732    -13.520187
   1.36275    -13.519289
   1.40817    -13.518415
   1.45360    -13.517614
   1.49902    -13.516903
   1.54445    -13.516286
   1.58987    -13.515810
   1.63530    -13.515434
   1.68072    -13.515209
   1.72615    -13.515135
   1.72615    -13.515135
   1.79039    -13.514468
   1.85463    -13.512442
   1.91887    -13.509060
   1.98311    -13.504499
   2.04735    -13.498748
   2.11159    -13.491951
   2.17583    -13.484253
   2.24007    -13.475766
   2.30431    -13.466759
   2.36855    -13.457440
   2.43279    -13.448068
   2.49703    -13.438869
   2.56127    -13.430139
   2.62551    -13.422198
   2.68975    -13.415273
   2.75399    -13.409645
   2.81823    -13.405421
   2.88247    -13.402857
   2.94671    -13.402004
   2.94671    -13.402004
   3.02539    -13.403795
   3.10407    -13.410899
   3.18275    -13.424793
   3.26143    -13.443290
   3.34010    -13.463002
   3.41878    -13.480668
   3.49746    -13.493612
   3.57614    -13.499602
   3.65482    -13.497373
   3.73350    -13.486533
   3.81217    -13.467726
   3.89085    -13.442679
   3.96953    -13.414278
   4.04821    -13.385825
   4.12689    -13.360698
   4.20556    -13.341076
   4.28424    -13.327578
   4.36292    -13.319852
   4.44160    -13.317334
   4.44160    -13.317334
   4.50584    -13.318289
   4.57008    -13.321354
   4.63432    -13.327293
   4.69856    -13.337642
   4.76280    -13.354270
   4.82704    -13.377245
   4.89128    -13.403007
   4.95552    -13.426830
   5.01976    -13.445148
   5.08400    -13.456102
   5.14824    -13.459217
   5.21249    -13.455281
   5.27673    -13.469131
   5.34097    -13.486546
   5.40521    -13.500822
   5.46945    -13.511913
   5.53369    -13.519807
   5.59793    -13.524538
   5.66217    -13.526089
   5.66217    -13.317334
   5.70759    -13.317437
   5.75302    -13.317742
   5.79844    -13.318222
   5.84387    -13.318904
   5.88929    -13.319748
   5.93472    -13.320686
   5.98014    -13.321782
   6.02557    -13.322960
   6.07099    -13.334283
   6.11642    -13.363025
   6.16184    -13.390898
   6.20727    -13.417283
   6.25269    -13.441519
   6.29812    -13.462980
   6.34354    -13.481207
   6.38897    -13.495845
   6.43439    -13.506496
   6.47982    -13.512958
   6.52524    -13.515135
 
# Band-Index    6
   6.52524    -13.515135
   6.47982    -13.512958
   6.43439    -13.506496
   6.38897    -13.495845
   6.34354    -13.481207
   6.29812    -13.462980
   6.25269    -13.441519
   6.20727    -13.417283
   6.16184    -13.390898
   6.11642    -13.363025
   6.07099    -13.334283
   6.02557    -13.305448
   5.98014    -13.277391
   5.93472    -13.250893
   5.88929    -13.226843
   5.84387    -13.205869
   5.79844    -13.188738
   5.75302    -13.176082
   5.70759    -13.168324
   5.66217    -13.165692
   5.66217    -13.526089
   5.59793    -13.523155
   5.53369    -13.514401
   5.46945    -13.500234
   5.40521    -13.481260
   5.34097    -13.458268
   5.27673    -13.446022
   5.21249    -13.448597
   5.14824    -13.425167
   5.08400    -13.399047
   5.01976    -13.370739
   4.95552    -13.340641
   4.89128    -13.309651
   4.82704    -13.278748
   4.76280    -13.255067
   4.69856    -13.232404
   4.63432    -13.207527
   4.57008    -13.185645
   4.50584    -13.170904
   4.44160    -13.165692
   4.44160    -13.165692
   4.36292    -13.173006
   4.28424    -13.193955
   4.20556    -13.226060
   4.12689    -13.265247
   4.04821    -13.307272
   3.96953    -13.348158
   3.89085    -13.384487
   3.81217    -13.413944
   3.73350    -13.435208
   3.65482    -13.448139
   3.57614    -13.453320
   3.49746    -13.452053
   3.41878    -13.445952
   3.34010    -13.436852
   3.26143    -13.426653
   3.18275    -13.416892
   3.10407    -13.408964
   3.02539    -13.403768
   2.94671    -13.402004
   2.94671    -13.402004
   2.88247    -13.402753
   2.81823    -13.404987
   2.75399    -13.408663
   2.68975    -13.413696
   2.62551    -13.419928
   2.56127    -13.427221
   2.49703    -13.435371
   2.43279    -13.444144
   2.36855    -13.453364
   2.30431    -13.462716
   2.24007    -13.471967
   2.17583    -13.480869
   2.11159    -13.489132
   2.04735    -13.496595
   1.98311    -13.503002
   1.91887    -13.508190
   1.85463    -13.512012
   1.79039    -13.514350
   1.72615    -13.515135
   1.72615    -13.515135
   1.68072    -13.514326
   1.63530    -13.511937
   1.58987    -13.507989
   1.54445    -13.502599
   1.49902    -13.495937
   1.45360    -13.488159
   1.40817    -13.479437
   1.36275    -13.470023
   1.31732    -13.460151
   1.27190    -13.450073
   1.22647    -13.440106
   1.18105    -13.430502
   1.13562    -13.453295
   1.09020    -13.474229
   1.04477    -13.492197
   0.99935    -13.506720
   0.95392    -13.517393
   0.90850    -13.523917
   0.86307    -13.526089
   0.86307    -13.526089
   0.81765    -13.525292
   0.77222    -13.522850
   0.72680    -13.518846
   0.68137    -13.513372
   0.63595    -13.506602
   0.59052    -13.498662
   0.54510    -13.489774
   0.49967    -13.480170
   0.45425    -13.470113
   0.40882    -13.459859
   0.36340    -13.449700
   0.31797    -13.439941
   0.27255    -13.426433
   0.22712    -13.411821
   0.18170    -13.401097
   0.13627    -13.401477
   0.09085    -13.401764
   0.04542    -13.401943
   0.00000    -13.402004
 
# Band-Index    7
   0.00000    -13.376024
   0.04542    -13.377527
   0.09085    -13.381987
   0.13627    -13.389336
   0.18170    -13.399377
   0.22712    -13.400569
   0.27255    -13.400001
   0.31797    -13.399375
   0.36340    -13.398689
   0.40882    -13.397990
   0.45425    -13.397281
   0.49967    -13.396589
   0.54510    -13.395918
   0.59052    -13.395294
   0.63595    -13.394734
   0.68137    -13.394252
   0.72680    -13.393862
   0.77222    -13.393575
   0.81765    -13.393399
   0.86307    -13.393308
   0.86307    -13.393308
   0.90850    -13.394197
   0.95392    -13.396738
   0.99935    -13.400888
   1.04477    -13.406522
   1.09020    -13.413457
   1.13562    -13.421541
   1.18105    -13.429984
   1.22647    -13.404949
   1.27190    -13.378863
   1.31732    -13.352517
   1.36275    -13.332174
   1.40817    -13.334320
   1.45360    -13.335392
   1.49902    -13.335560
   1.54445    -13.334999
   1.58987    -13.334120
   1.63530    -13.333232
   1.68072    -13.332572
   1.72615    -13.332334
   1.72615    -13.332334
   1.79039    -13.332822
   1.85463    -13.334245
   1.91887    -13.336506
   1.98311    -13.339559
   2.04735    -13.343139
   2.11159    -13.347130
   2.17583    -13.351333
   2.24007    -13.355419
   2.30431    -13.367125
   2.36855    -13.375534
   2.43279    -13.380826
   2.49703    -13.383954
   2.56127    -13.385571
   2.62551    -13.386214
   2.68975    -13.385946
   2.75399    -13.384597
   2.81823    -13.381668
   2.88247    -13.377844
   2.94671    -13.376024
   2.94671    -13.376024
   3.02539    -13.377194
   3.10407    -13.378555
   3.18275    -13.377122
   3.26143    -13.372799
   3.34010    -13.366324
   3.41878    -13.358090
   3.49746    -13.348420
   3.57614    -13.337407
   3.65482    -13.325242
   3.73350    -13.312012
   3.81217    -13.297580
   3.89085    -13.281807
   3.96953    -13.264404
   4.04821    -13.244975
   4.12689    -13.223708
   4.20556    -13.202129
   4.28424    -13.183189
   4.36292    -13.170293
   4.44160    -13.165692
   4.44160    -13.165692
   4.50584    -13.169533
   4.57008    -13.180686
   4.63432    -13.198469
   4.69856    -13.221697
   4.76280    -13.248977
   4.82704    -13.271880
   4.89128    -13.283057
   4.95552    -13.290584
   5.01976    -13.314715
   5.08400    -13.344175
   5.14824    -13.374143
   5.21249    -13.403765
   5.27673    -13.432121
   5.34097    -13.433590
   5.40521    -13.420526
   5.46945    -13.408942
   5.53369    -13.400280
   5.59793    -13.395063
   5.66217    -13.393308
   5.66217    -13.165692
   5.70759    -13.168324
   5.75302    -13.176082
   5.79844    -13.188738
   5.84387    -13.205869
   5.88929    -13.226843
   5.93472    -13.250893
   5.98014    -13.277391
   6.02557    -13.305448
   6.07099    -13.324187
   6.11642    -13.325430
   6.16184    -13.326648
   6.20727    -13.327822
   6.25269    -13.328930
   6.29812    -13.329913
   6.34354    -13.330756
   6.38897    -13.331437
   6.43439    -13.331936
   6.47982    -13.332231
   6.52524    -13.332334
 
# Band-Index    8
   6.52524    -13.206753
   6.47982    -13.206498
   6.43439    -13.205878
   6.38897    -13.204641
   6.34354    -13.202940
   6.29812    -13.200828
   6.25269    -13.198323
   6.20727    -13.195488
   6.16184    -13.192396
   6.11642    -13.189156
   6.07099    -13.185769
   6.02557    -13.182329
   5.98014    -13.178998
   5.93472    -13.175836
   5.88929    -13.173009
   5.84387    -13.170485
   5.79844    -13.168412
   5.75302    -13.166936
   5.70759    -13.166012
   5.66217    -13.165692
   5.66217    -13.292499
   5.59793    -13.293608
   5.53369    -13.296357
   5.46945    -13.299779
   5.40521    -13.302786
   5.34097    -13.304702
   5.27673    -13.305295
   5.21249    -13.304600
   5.14824    -13.302826
   5.08400    -13.299922
   5.01976    -13.295964
   4.95552    -13.286408
   4.89128    -13.260158
   4.82704    -13.236337
   4.76280    -13.215459
   4.69856    -13.197875
   4.63432    -13.183874
   4.57008    -13.173837
   4.50584    -13.167745
   4.44160    -13.165692
   4.44160    -13.165692
   4.36292    -13.170293
   4.28424    -13.183189
   4.20556    -13.202129
   4.12689    -13.223708
   4.04821    -13.244975
   3.96953    -13.264404
   3.89085    -13.281806
   3.81217    -13.297579
   3.73350    -13.312012
   3.65482    -13.325242
   3.57614    -13.337406
   3.49746    -13.348420
   3.41878    -13.358090
   3.34010    -13.366324
   3.26143    -13.372798
   3.18275    -13.377121
   3.10407    -13.378554
   3.02539    -13.377193
   2.94671    -13.376023
   2.94671    -13.376023
   2.88247    -13.375907
   2.81823    -13.375582
   2.75399    -13.375025
   2.68975    -13.374117
   2.62551    -13.372849
   2.56127    -13.371124
   2.49703    -13.368923
   2.43279    -13.366276
   2.36855    -13.363059
   2.30431    -13.359405
   2.24007    -13.354680
   2.17583    -13.337592
   2.11159    -13.315967
   2.04735    -13.291341
   1.98311    -13.265979
   1.91887    -13.242418
   1.85463    -13.223393
   1.79039    -13.211084
   1.72615    -13.206753
   1.72615    -13.206753
   1.68072    -13.208897
   1.63530    -13.215353
   1.58987    -13.225879
   1.54445    -13.240145
   1.49902    -13.257908
   1.45360    -13.278561
   1.40817    -13.301650
   1.36275    -13.326523
   1.31732    -13.328959
   1.27190    -13.324836
   1.22647    -13.320096
   1.18105    -13.315011
   1.13562    -13.309887
   1.09020    -13.305095
   1.04477    -13.300833
   0.99935    -13.297324
   0.95392    -13.294709
   0.90850    -13.293096
   0.86307    -13.292499
   0.86307    -13.292499
   0.81765    -13.293130
   0.77222    -13.294841
   0.72680    -13.297633
   0.68137    -13.301392
   0.63595    -13.306105
   0.59052    -13.311568
   0.54510    -13.317644
   0.49967    -13.324166
   0.45425    -13.330955
   0.40882    -13.337828
   0.36340    -13.344556
   0.31797    -13.351084
   0.27255    -13.357127
   0.22712    -13.362576
   0.18170    -13.367247
   0.13627    -13.371001
   0.09085    -13.373748
   0.04542    -13.375433
   0.00000    -13.376023
 
# Band-Index    9
   0.00000     -5.757785
   0.04542     -5.771367
   0.09085     -5.811216
   0.13627     -5.873713
   0.18170     -5.953772
   0.22712     -6.045398
   0.27255     -6.142786
   0.31797     -6.241973
   0.36340     -6.337159
   0.40882     -6.425836
   0.45425     -6.504049
   0.49967     -6.569542
   0.54510     -6.621069
   0.59052     -6.657685
   0.63595     -6.679526
   0.68137     -6.687782
   0.72680     -6.685281
   0.77222     -6.676344
   0.81765     -6.666939
   0.86307     -6.662126
   0.86307     -6.662126
   0.90850     -6.662956
   0.95392     -6.663178
   0.99935     -6.663662
   1.04477     -6.664685
   1.09020     -6.666540
   1.13562     -6.669732
   1.18105     -6.675060
   1.22647     -6.683503
   1.27190     -6.816331
   1.31732     -6.944665
   1.36275     -7.062026
   1.40817     -7.167820
   1.45360     -7.261095
   1.49902     -7.341495
   1.54445     -7.407495
   1.58987     -7.459428
   1.63530     -7.496782
   1.68072     -7.519129
   1.72615     -7.526635
   1.72615     -7.526635
   1.79039     -7.511962
   1.85463     -7.470303
   1.91887     -7.408915
   1.98311     -7.336060
   2.04735     -7.255978
   2.11159     -7.169413
   2.17583     -7.075375
   2.24007     -6.969709
   2.30431     -6.854567
   2.36855     -6.729398
   2.43279     -6.595652
   2.49703     -6.455159
   2.56127     -6.312520
   2.62551     -6.173118
   2.68975     -6.041936
   2.75399     -5.927095
   2.81823     -5.836412
   2.88247     -5.777929
   2.94671     -5.757785
   2.94671     -5.757785
   3.02539     -5.784356
   3.10407     -5.860342
   3.18275     -5.974577
   3.26143     -6.114039
   3.34010     -6.264766
   3.41878     -6.415437
   3.49746     -6.559321
   3.57614     -6.689417
   3.65482     -6.803784
   3.73350     -6.902394
   3.81217     -6.985160
   3.89085     -7.057863
   3.96953     -7.131982
   4.04821     -7.226607
   4.12689     -7.355570
   4.20556     -7.496902
   4.28424     -7.616060
   4.36292     -7.694570
   4.44160     -7.721290
   4.44160     -7.721290
   4.50584     -7.703462
   4.57008     -7.650923
   4.63432     -7.567780
   4.69856     -7.460908
   4.76280     -7.337183
   4.82704     -7.204581
   4.89128     -7.072609
   4.95552     -6.953182
   5.01976     -6.863092
   5.08400     -6.807937
   5.14824     -6.735764
   5.21249     -6.704655
   5.27673     -6.685702
   5.34097     -6.674354
   5.40521     -6.667991
   5.46945     -6.664912
   5.53369     -6.663555
   5.59793     -6.663034
   5.66217     -6.662126
   5.66217     -7.721290
   5.70759     -7.712368
   5.75302     -7.685766
   5.79844     -7.644141
   5.84387     -7.589944
   5.88929     -7.526944
   5.93472     -7.458497
   5.98014     -7.390936
   6.02557     -7.326958
   6.07099     -7.269305
   6.11642     -7.283028
   6.16184     -7.329871
   6.20727     -7.373339
   6.25269     -7.412447
   6.29812     -7.446500
   6.34354     -7.474980
   6.38897     -7.497505
   6.43439     -7.513781
   6.47982     -7.523338
   6.52524     -7.526635
 
# Band-Index   10
   6.52524     -7.041583
   6.47982     -7.043330
   6.43439     -7.049729
   6.38897     -7.058858
   6.34354     -7.072001
   6.29812     -7.089703
   6.25269     -7.112468
   6.20727     -7.140950
   6.16184     -7.176117
   6.11642     -7.219058
   6.07099     -7.233433
   6.02557     -7.182058
   5.98014     -7.131106
   5.93472     -7.081727
   5.88929     -7.036380
   5.84387     -6.995430
   5.79844     -6.961303
   5.75302     -6.936178
   5.70759     -6.920306
   5.66217     -6.914895
   5.66217     -5.737560
   5.59793     -5.792500
   5.53369     -5.924599
   5.46945     -6.085585
   5.40521     -6.247522
   5.34097     -6.397541
   5.27673     -6.530318
   5.21249     -6.642810
   5.14824     -6.735466
   5.08400     -6.783875
   5.01976     -6.856028
   4.95552     -6.901042
   4.89128     -6.925039
   4.82704     -6.937498
   4.76280     -6.940335
   4.69856     -6.936140
   4.63432     -6.928778
   4.57008     -6.921635
   4.50584     -6.916983
   4.44160     -6.914895
   4.44160     -6.914895
   4.36292     -6.913029
   4.28424     -6.905343
   4.20556     -6.883785
   4.12689     -6.826867
   4.04821     -6.700342
   3.96953     -6.486465
   3.89085     -6.198270
   3.81217     -6.039695
   3.73350     -5.944068
   3.65482     -5.862304
   3.57614     -5.795851
   3.49746     -5.747513
   3.41878     -5.717515
   3.34010     -5.706868
   3.26143     -5.711150
   3.18275     -5.724389
   3.10407     -5.740756
   3.02539     -5.753129
   2.94671     -5.757785
   2.94671     -5.757785
   2.88247     -5.757035
   2.81823     -5.755384
   2.75399     -5.754297
   2.68975     -5.755043
   2.62551     -5.762104
   2.56127     -5.776023
   2.49703     -5.800110
   2.43279     -5.835061
   2.36855     -5.877735
   2.30431     -5.928166
   2.24007     -5.983131
   2.17583     -6.042390
   2.11159     -6.317931
   2.04735     -6.553217
   1.98311     -6.743430
   1.91887     -6.882429
   1.85463     -6.974677
   1.79039     -7.025835
   1.72615     -7.041583
   1.72615     -7.041583
   1.68072     -7.033595
   1.63530     -7.010817
   1.58987     -6.974528
   1.54445     -6.927953
   1.49902     -6.876659
   1.45360     -6.825138
   1.40817     -6.779711
   1.36275     -6.743301
   1.31732     -6.716070
   1.27190     -6.696173
   1.22647     -6.679866
   1.18105     -6.536267
   1.13562     -6.387972
   1.09020     -6.238935
   1.04477     -6.093530
   0.99935     -5.958724
   0.95392     -5.845003
   0.90850     -5.766349
   0.86307     -5.737560
   0.86307     -5.737560
   0.81765     -5.712792
   0.77222     -5.640876
   0.72680     -5.528323
   0.68137     -5.380139
   0.63595     -5.206415
   0.59052     -5.156781
   0.54510     -5.237917
   0.49967     -5.314457
   0.45425     -5.386122
   0.40882     -5.452545
   0.36340     -5.513400
   0.31797     -5.569746
   0.27255     -5.618240
   0.22712     -5.660061
   0.18170     -5.694870
   0.13627     -5.722156
   0.09085     -5.741846
   0.04542     -5.753799
   0.00000     -5.757785
 
# Band-Index   11
   0.00000     -5.757785
   0.04542     -5.753799
   0.09085     -5.741846
   0.13627     -5.722156
   0.18170     -5.694870
   0.22712     -5.660061
   0.27255     -5.618240
   0.31797     -5.569746
   0.36340     -5.513400
   0.40882     -5.452545
   0.45425     -5.386122
   0.49967     -5.314457
   0.54510     -5.237917
   0.59052     -5.156781
   0.63595     -5.071327
   0.68137     -4.981793
   0.72680     -4.888394
   0.77222     -4.791291
   0.81765     -4.690825
   0.86307     -4.596809
   0.86307     -4.596809
   0.90850     -4.618030
   0.95392     -4.674064
   0.99935     -4.763318
   1.04477     -4.880612
   1.09020     -5.019219
   1.13562     -5.172557
   1.18105     -5.335055
   1.22647     -5.497814
   1.27190     -5.654787
   1.31732     -5.801507
   1.36275     -5.930204
   1.40817     -6.037265
   1.45360     -6.121319
   1.49902     -6.182901
   1.54445     -6.225183
   1.58987     -6.253615
   1.63530     -6.271109
   1.68072     -6.280428
   1.72615     -6.283390
   1.72615     -6.283390
   1.79039     -6.277623
   1.85463     -6.260369
   1.91887     -6.231843
   1.98311     -6.195100
   2.04735     -6.148671
   2.11159     -6.096856
   2.17583     -6.040721
   2.24007     -5.732378
   2.30431     -5.395815
   2.36855     -5.182625
   2.43279     -5.292181
   2.49703     -5.393469
   2.56127     -5.484707
   2.62551     -5.564876
   2.68975     -5.632463
   2.75399     -5.686949
   2.81823     -5.726052
   2.88247     -5.749828
   2.94671     -5.757785
   2.94671     -5.757785
   3.02539     -5.753129
   3.10407     -5.740756
   3.18275     -5.724389
   3.26143     -5.711149
   3.34010     -5.706868
   3.41878     -5.717515
   3.49746     -5.747513
   3.57614     -5.795851
   3.65482     -5.862304
   3.73350     -5.944068
   3.81217     -6.039695
   3.89085     -6.150482
   3.96953     -6.281216
   4.04821     -6.430279
   4.12689     -6.582889
   4.20556     -6.719582
   4.28424     -6.825099
   4.36292     -6.892315
   4.44160     -6.914895
   4.44160     -6.914895
   4.50584     -6.902709
   4.57008     -6.866262
   4.63432     -6.805746
   4.69856     -6.723421
   4.76280     -6.619816
   4.82704     -6.496981
   4.89128     -6.356537
   4.95552     -6.200289
   5.01976     -6.032209
   5.08400     -5.868942
   5.14824     -5.696983
   5.21249     -5.508135
   5.27673     -5.316361
   5.34097     -5.128942
   5.40521     -4.956969
   5.46945     -4.809431
   5.53369     -4.695689
   5.59793     -4.623613
   5.66217     -4.596809
   5.66217     -6.914895
   5.70759     -6.904435
   5.75302     -6.872716
   5.79844     -6.820589
   5.84387     -6.748915
   5.88929     -6.657961
   5.93472     -6.547715
   5.98014     -6.420816
   6.02557     -6.277440
   6.07099     -6.273550
   6.11642     -6.274942
   6.16184     -6.276105
   6.20727     -6.277405
   6.25269     -6.278912
   6.29812     -6.280041
   6.34354     -6.280995
   6.38897     -6.282414
   6.43439     -6.283004
   6.47982     -6.283268
   6.52524     -6.283390
 
# Band-Index   12
   6.52524     -4.082164
   6.47982     -4.216952
   6.43439     -4.442345
   6.38897     -4.676250
   6.34354     -4.907709
   6.29812     -5.134020
   6.25269     -5.352028
   6.20727     -5.560334
   6.16184     -5.758321
   6.11642     -5.945216
   6.07099     -6.118177
   6.02557     -6.277440
   5.98014     -6.420816
   5.93472     -6.547715
   5.88929     -6.657961
   5.84387     -6.748915
   5.79844     -6.820589
   5.75302     -6.872716
   5.70759     -6.904435
   5.66217     -6.914895
   5.66217     -4.596809
   5.59793     -4.609738
   5.53369     -4.674800
   5.46945     -4.793276
   5.40521     -4.942298
   5.34097     -5.111394
   5.27673     -5.293195
   5.21249     -5.480590
   5.14824     -5.669121
   5.08400     -5.853762
   5.01976     -6.016673
   4.95552     -6.136275
   4.89128     -6.233701
   4.82704     -6.328489
   4.76280     -6.450020
   4.69856     -6.595203
   4.63432     -6.728831
   4.57008     -6.830879
   4.50584     -6.893987
   4.44160     -6.914895
   4.44160     -6.914895
   4.36292     -6.892315
   4.28424     -6.825099
   4.20556     -6.719582
   4.12689     -6.582889
   4.04821     -6.430279
   3.96953     -6.281216
   3.89085     -6.150482
   3.81217     -5.864885
   3.73350     -5.499174
   3.65482     -5.112399
   3.57614     -4.714305
   3.49746     -4.311964
   3.41878     -3.911579
   3.34010     -3.517928
   3.26143     -3.134538
   3.18275     -2.793343
   3.10407     -2.518527
   3.02539     -2.271511
   2.94671     -2.107812
   2.94671     -2.107812
   2.88247     -2.240417
   2.81823     -2.485368
   2.75399     -2.795746
   2.68975     -3.145215
   2.62551     -3.516022
   2.56127     -3.897871
   2.49703     -4.284358
   2.43279     -4.665727
   2.36855     -5.038367
   2.30431     -5.066148
   2.24007     -4.946128
   2.17583     -4.823877
   2.11159     -4.700024
   2.04735     -4.577397
   1.98311     -4.457696
   1.91887     -4.340986
   1.85463     -4.231153
   1.79039     -4.133852
   1.72615     -4.082164
   1.72615     -4.082164
   1.68072     -4.104439
   1.63530     -4.151156
   1.58987     -4.202898
   1.54445     -4.253021
   1.49902     -4.300558
   1.45360     -4.343457
   1.40817     -4.383426
   1.36275     -4.419912
   1.31732     -4.452481
   1.27190     -4.480917
   1.22647     -4.506489
   1.18105     -4.528712
   1.13562     -4.547627
   1.09020     -4.563501
   1.04477     -4.576450
   0.99935     -4.586327
   0.95392     -4.593323
   0.90850     -4.597468
   0.86307     -4.596809
   0.86307     -4.596809
   0.81765     -4.690825
   0.77222     -4.791291
   0.72680     -4.888394
   0.68137     -4.981793
   0.63595     -5.071327
   0.59052     -5.008398
   0.54510     -4.790015
   0.49967     -4.553996
   0.45425     -4.302112
   0.40882     -4.037805
   0.36340     -3.762625
   0.31797     -3.478472
   0.27255     -3.188363
   0.22712     -2.894236
   0.18170     -2.605834
   0.13627     -2.456441
   0.09085     -2.311964
   0.04542     -2.180863
   0.00000     -2.107812
 
# Band-Index   13
   0.00000     -2.107812
   0.04542     -2.180863
   0.09085     -2.311964
   0.13627     -2.456441
   0.18170     -2.605834
   0.22712     -2.755195
   0.27255     -2.904711
   0.31797     -3.052742
   0.36340     -3.197444
   0.40882     -3.340544
   0.45425     -3.480669
   0.49967     -3.617606
   0.54510     -3.751025
   0.59052     -3.880851
   0.63595     -4.007023
   0.68137     -4.129451
   0.72680     -4.248336
   0.77222     -4.363418
   0.81765     -4.474564
   0.86307     -4.569378
   0.86307     -4.569378
   0.90850     -4.566821
   0.95392     -4.557189
   0.99935     -4.541391
   1.04477     -4.519863
   1.09020     -4.492759
   1.13562     -4.461513
   1.18105     -4.426697
   1.22647     -4.388985
   1.27190     -4.349464
   1.31732     -4.309405
   1.36275     -4.269499
   1.40817     -4.231040
   1.45360     -4.195112
   1.49902     -4.162895
   1.54445     -4.134913
   1.58987     -4.112546
   1.63530     -4.095905
   1.68072     -4.085580
   1.72615     -4.082164
   1.72615     -4.082164
   1.79039     -4.075754
   1.85463     -4.056530
   1.91887     -4.023920
   1.98311     -3.979466
   2.04735     -3.922310
   2.11159     -3.852764
   2.17583     -3.771628
   2.24007     -3.676768
   2.30431     -3.571538
   2.36855     -3.455136
   2.43279     -3.328430
   2.49703     -3.192297
   2.56127     -3.046215
   2.62551     -2.892051
   2.68975     -2.730989
   2.75399     -2.563960
   2.81823     -2.392842
   2.88247     -2.223396
   2.94671     -2.107812
   2.94671     -2.107812
   3.02539     -2.271511
   3.10407     -2.518527
   3.18275     -2.793343
   3.26143     -3.094802
   3.34010     -3.415928
   3.41878     -3.750130
   3.49746     -4.088360
   3.57614     -4.425575
   3.65482     -4.755338
   3.73350     -5.070214
   3.81217     -5.362354
   3.89085     -5.620027
   3.96953     -5.832260
   4.04821     -5.990257
   4.12689     -6.100514
   4.20556     -6.176714
   4.28424     -6.227581
   4.36292     -6.257640
   4.44160     -6.267926
   4.44160     -6.267926
   4.50584     -6.264742
   4.57008     -6.253262
   4.63432     -6.232311
   4.69856     -6.192912
   4.76280     -6.112368
   4.82704     -5.954757
   4.89128     -5.813992
   4.95552     -5.686573
   5.01976     -5.551986
   5.08400     -5.410170
   5.14824     -5.267179
   5.21249     -5.126411
   5.27673     -4.994727
   5.34097     -4.874959
   5.40521     -4.775531
   5.46945     -4.697579
   5.53369     -4.642421
   5.59793     -4.597346
   5.66217     -4.569378
   5.66217     -6.267926
   5.70759     -6.268035
   5.75302     -6.268361
   5.79844     -6.267984
   5.84387     -6.268772
   5.88929     -6.269728
   5.93472     -6.269641
   5.98014     -6.270904
   6.02557     -6.272244
   6.07099     -6.118177
   6.11642     -5.945216
   6.16184     -5.758321
   6.20727     -5.560334
   6.25269     -5.352028
   6.29812     -5.134020
   6.34354     -4.907709
   6.38897     -4.676250
   6.43439     -4.442345
   6.47982     -4.216952
   6.52524     -4.082164
 
# Band-Index   14
   6.52524     -3.900923
   6.47982     -3.932569
   6.43439     -4.024641
   6.38897     -4.165643
   6.34354     -4.342692
   6.29812     -4.546218
   6.25269     -4.761266
   6.20727     -4.979194
   6.16184     -5.191945
   6.11642     -5.394567
   6.07099     -5.577834
   6.02557     -5.740532
   5.98014     -5.878738
   5.93472     -5.992779
   5.88929     -6.083280
   5.84387     -6.153135
   5.79844     -6.204289
   5.75302     -6.241103
   5.70759     -6.261323
   5.66217     -6.267926
   5.66217     -4.569378
   5.59793     -4.495408
   5.53369     -4.304269
   5.46945     -4.046663
   5.40521     -3.754948
   5.34097     -3.445320
   5.27673     -3.577362
   5.21249     -3.960118
   5.14824     -4.344877
   5.08400     -4.720441
   5.01976     -5.080485
   4.95552     -5.414490
   4.89128     -5.711829
   4.82704     -5.928402
   4.76280     -6.029089
   4.69856     -6.112914
   4.63432     -6.179115
   4.57008     -6.227815
   4.50584     -6.258134
   4.44160     -6.267926
   4.44160     -6.267926
   4.36292     -6.257640
   4.28424     -6.227581
   4.20556     -6.176714
   4.12689     -6.100514
   4.04821     -5.990257
   3.96953     -5.832260
   3.89085     -5.620027
   3.81217     -5.362354
   3.73350     -5.070214
   3.65482     -4.755338
   3.57614     -4.425575
   3.49746     -4.088360
   3.41878     -3.750130
   3.34010     -3.415928
   3.26143     -3.094802
   3.18275     -2.762540
   3.10407     -2.400923
   3.02539     -2.099080
   2.94671     -2.107811
   2.94671     -2.107811
   2.88247     -2.104365
   2.81823     -2.115027
   2.75399     -2.303867
   2.68975     -2.463244
   2.62551     -2.606568
   2.56127     -2.738409
   2.49703     -2.862309
   2.43279     -2.977852
   2.36855     -3.085492
   2.30431     -3.199513
   2.24007     -3.310504
   2.17583     -3.410330
   2.11159     -3.496036
   2.04735     -3.570936
   1.98311     -3.633371
   1.91887     -3.682579
   1.85463     -3.764355
   1.79039     -3.852922
   1.72615     -3.900923
   1.72615     -3.900923
   1.68072     -3.873507
   1.63530     -3.811970
   1.58987     -3.767573
   1.54445     -3.781755
   1.49902     -3.800549
   1.45360     -3.823828
   1.40817     -3.851691
   1.36275     -3.885125
   1.31732     -3.924286
   1.27190     -3.969402
   1.22647     -4.023930
   1.18105     -4.086374
   1.13562     -4.157741
   1.09020     -4.237642
   1.04477     -4.324107
   0.99935     -4.411270
   0.95392     -4.490634
   0.90850     -4.548479
   0.86307     -4.569378
   0.86307     -4.569378
   0.81765     -4.474564
   0.77222     -4.363418
   0.72680     -4.248336
   0.68137     -4.129451
   0.63595     -4.007022
   0.59052     -3.880851
   0.54510     -3.751025
   0.49967     -3.617606
   0.45425     -3.480669
   0.40882     -3.340544
   0.36340     -3.197444
   0.31797     -3.052742
   0.27255     -2.904711
   0.22712     -2.755195
   0.18170     -2.601197
   0.13627     -2.309650
   0.09085     -2.114830
   0.04542     -2.109580
   0.00000     -2.107811
 
# Band-Index   15
   0.00000     -1.940235
   0.04542     -1.940261
   0.09085     -2.032766
   0.13627     -2.123389
   0.18170     -2.134966
   0.22712     -2.146596
   0.27255     -2.166834
   0.31797     -2.185426
   0.36340     -2.202334
   0.40882     -2.222703
   0.45425     -2.243021
   0.49967     -2.264348
   0.54510     -2.283450
   0.59052     -2.300949
   0.63595     -2.316419
   0.68137     -2.329490
   0.72680     -2.339865
   0.77222     -2.347299
   0.81765     -2.351618
   0.86307     -2.346035
   0.86307     -2.346035
   0.90850     -2.341048
   0.95392     -2.306122
   0.99935     -2.248382
   1.04477     -2.355214
   1.09020     -2.489953
   1.13562     -2.623901
   1.18105     -2.755249
   1.22647     -2.883564
   1.27190     -3.007910
   1.31732     -3.127806
   1.36275     -3.242866
   1.40817     -3.352764
   1.45360     -3.457239
   1.49902     -3.555507
   1.54445     -3.648092
   1.58987     -3.734969
   1.63530     -3.756535
   1.68072     -3.750111
   1.72615     -3.748096
   1.72615     -3.748096
   1.79039     -3.740824
   1.85463     -3.718970
   1.91887     -3.667345
   1.98311     -3.609555
   2.04735     -3.537885
   2.11159     -3.460384
   2.17583     -3.375140
   2.24007     -3.283375
   2.30431     -3.187137
   2.36855     -3.075391
   2.43279     -2.935941
   2.49703     -2.782168
   2.56127     -2.612858
   2.62551     -2.447945
   2.68975     -2.323743
   2.75399     -2.200875
   2.81823     -2.094964
   2.88247     -1.985179
   2.94671     -1.940235
   2.94671     -1.940235
   3.02539     -2.070265
   3.10407     -2.073044
   3.18275     -2.029995
   3.26143     -2.060060
   3.34010     -2.118369
   3.41878     -2.124351
   3.49746     -2.080434
   3.57614     -1.990170
   3.65482     -1.866074
   3.73350     -1.714191
   3.81217     -1.547010
   3.89085     -1.372717
   3.96953     -1.205907
   4.04821     -1.052841
   4.12689     -0.919033
   4.20556     -0.808370
   4.28424     -0.808538
   4.36292     -0.857750
   4.44160     -0.879772
   4.44160     -0.879772
   4.50584     -0.864748
   4.57008     -0.828490
   4.63432     -0.819753
   4.69856     -0.903523
   4.76280     -1.040446
   4.82704     -1.215148
   4.89128     -1.421325
   4.95552     -1.656116
   5.01976     -1.917470
   5.08400     -2.200606
   5.14824     -2.501011
   5.21249     -2.811082
   5.27673     -3.128490
   5.34097     -3.203706
   5.40521     -2.849303
   5.46945     -2.525406
   5.53369     -2.263536
   5.59793     -2.329457
   5.66217     -2.346035
   5.66217     -0.879772
   5.70759     -0.872066
   5.75302     -0.850411
   5.79844     -0.818853
   5.84387     -0.806003
   5.88929     -0.898153
   5.93472     -1.017764
   5.98014     -1.161053
   6.02557     -1.326562
   6.07099     -1.510693
   6.11642     -1.712305
   6.16184     -1.926517
   6.20727     -2.153578
   6.25269     -2.391818
   6.29812     -2.634746
   6.34354     -2.881756
   6.38897     -3.132015
   6.43439     -3.378728
   6.47982     -3.610671
   6.52524     -3.748096
 
# Band-Index   16
   6.52524     -3.748096
   6.47982     -3.610671
   6.43439     -3.378728
   6.38897     -3.132015
   6.34354     -2.881756
   6.29812     -2.634746
   6.25269     -2.391818
   6.20727     -2.153578
   6.16184     -1.926517
   6.11642     -1.712305
   6.07099     -1.510693
   6.02557     -1.326562
   5.98014     -1.161053
   5.93472     -1.017764
   5.88929     -0.898153
   5.84387     -0.806003
   5.79844     -0.739652
   5.75302     -0.701554
   5.70759     -0.678685
   5.66217     -0.671306
   5.66217     -1.944256
   5.59793     -2.035655
   5.53369     -2.247812
   5.46945     -2.163797
   5.40521     -2.040608
   5.34097     -1.903027
   5.27673     -1.838307
   5.21249     -1.799102
   5.14824     -1.728264
   5.08400     -1.629532
   5.01976     -1.515016
   4.95552     -1.384245
   4.89128     -1.254186
   4.82704     -1.123030
   4.76280     -0.999384
   4.69856     -0.887465
   4.63432     -0.793051
   4.57008     -0.725269
   4.50584     -0.685788
   4.44160     -0.671306
   4.44160     -0.671306
   4.36292     -0.684672
   4.28424     -0.730077
   4.20556     -0.808370
   4.12689     -0.919033
   4.04821     -1.052841
   3.96953     -1.205907
   3.89085     -1.372717
   3.81217     -1.547010
   3.73350     -1.714191
   3.65482     -1.866074
   3.57614     -1.990170
   3.49746     -2.080434
   3.41878     -2.124351
   3.34010     -2.118369
   3.26143     -2.060060
   3.18275     -1.957750
   3.10407     -1.829661
   3.02539     -1.817090
   2.94671     -1.940235
   2.94671     -1.940235
   2.88247     -1.915747
   2.81823     -2.083371
   2.75399     -2.095705
   2.68975     -2.236107
   2.62551     -2.429210
   2.56127     -2.571592
   2.49703     -2.693485
   2.43279     -2.812662
   2.36855     -2.930414
   2.30431     -3.044040
   2.24007     -3.154568
   2.17583     -3.262469
   2.11159     -3.366968
   2.04735     -3.469241
   1.98311     -3.568824
   1.91887     -3.665491
   1.85463     -3.711771
   1.79039     -3.739623
   1.72615     -3.748096
   1.72615     -3.748096
   1.68072     -3.737635
   1.63530     -3.707153
   1.58987     -3.654600
   1.54445     -3.583044
   1.49902     -3.495147
   1.45360     -3.389254
   1.40817     -3.267472
   1.36275     -3.131597
   1.31732     -2.983769
   1.27190     -2.824296
   1.22647     -2.658072
   1.18105     -2.485536
   1.13562     -2.308914
   1.09020     -2.132128
   1.04477     -2.168898
   0.99935     -2.221950
   0.95392     -2.095490
   0.90850     -1.990534
   0.86307     -1.944256
   0.86307     -1.944256
   0.81765     -1.944290
   0.77222     -1.944210
   0.72680     -1.944078
   0.68137     -1.943899
   0.63595     -1.943676
   0.59052     -1.943415
   0.54510     -1.943125
   0.49967     -1.942814
   0.45425     -1.942473
   0.40882     -1.942144
   0.36340     -1.941836
   0.31797     -1.941458
   0.27255     -1.941173
   0.22712     -1.940918
   0.18170     -1.940723
   0.13627     -1.940466
   0.09085     -1.940338
   0.04542     -1.891831
   0.00000     -1.940235
 
# Band-Index   17
   0.00000     -1.940235
   0.04542     -1.891831
   0.09085     -1.831785
   0.13627     -1.792838
   0.18170     -1.767808
   0.22712     -1.742972
   0.27255     -1.720659
   0.31797     -1.699361
   0.36340     -1.678866
   0.40882     -1.656131
   0.45425     -1.633421
   0.49967     -1.610842
   0.54510     -1.588983
   0.59052     -1.568396
   0.63595     -1.549679
   0.68137     -1.532638
   0.72680     -1.519622
   0.77222     -1.509834
   0.81765     -1.503815
   0.86307     -1.501614
   0.86307     -1.501614
   0.90850     -1.542088
   0.95392     -1.647884
   0.99935     -1.792336
   1.04477     -1.958924
   1.09020     -2.069363
   1.13562     -1.952648
   1.18105     -1.822562
   1.22647     -1.683446
   1.27190     -1.537790
   1.31732     -1.393370
   1.36275     -1.249978
   1.40817     -1.111623
   1.45360     -0.985958
   1.49902     -0.873952
   1.54445     -0.777197
   1.58987     -0.701020
   1.63530     -0.645380
   1.68072     -0.611221
   1.72615     -0.600232
   1.72615     -0.600232
   1.79039     -0.616638
   1.85463     -0.664426
   1.91887     -0.737814
   1.98311     -0.843136
   2.04735     -0.962051
   2.11159     -1.098146
   2.17583     -1.238531
   2.24007     -1.378138
   2.30431     -1.514331
   2.36855     -1.638372
   2.43279     -1.748751
   2.49703     -1.841707
   2.56127     -1.917427
   2.62551     -1.975390
   2.68975     -2.015818
   2.75399     -1.982022
   2.81823     -1.804276
   2.88247     -1.823351
   2.94671     -1.940235
   2.94671     -1.940235
   3.02539     -1.817090
   3.10407     -1.829661
   3.18275     -1.957750
   3.26143     -1.971168
   3.34010     -1.899304
   3.41878     -1.810954
   3.49746     -1.712766
   3.57614     -1.606480
   3.65482     -1.492334
   3.73350     -1.370747
   3.81217     -1.251772
   3.89085     -1.134136
   3.96953     -1.025001
   4.04821     -0.924861
   4.12689     -0.836582
   4.20556     -0.771019
   4.28424     -0.730077
   4.36292     -0.684672
   4.44160     -0.671306
   4.44160     -0.671306
   4.50584     -0.679783
   4.57008     -0.701034
   4.63432     -0.719594
   4.69856     -0.762993
   4.76280     -0.820210
   4.82704     -0.895087
   4.89128     -0.984741
   4.95552     -1.088486
   5.01976     -1.206177
   5.08400     -1.334272
   5.14824     -1.471834
   5.21249     -1.613093
   5.27673     -1.759291
   5.34097     -1.840262
   5.40521     -1.803891
   5.46945     -1.730834
   5.53369     -1.635210
   5.59793     -1.542996
   5.66217     -1.501614
   5.66217     -0.671306
   5.70759     -0.678685
   5.75302     -0.701554
   5.79844     -0.739652
   5.84387     -0.782858
   5.88929     -0.747497
   5.93472     -0.716028
   5.98014     -0.689872
   6.02557     -0.668819
   6.07099     -0.652119
   6.11642     -0.638905
   6.16184     -0.628422
   6.20727     -0.620101
   6.25269     -0.613508
   6.29812     -0.608863
   6.34354     -0.605111
   6.38897     -0.604424
   6.43439     -0.602282
   6.47982     -0.600669
   6.52524     -0.600232
 
# Band-Index   18
   6.52524     -0.597532
   6.47982     -0.597933
   6.43439     -0.599282
   6.38897     -0.601347
   6.34354     -0.604302
   6.29812     -0.608314
   6.25269     -0.613181
   6.20727     -0.615663
   6.16184     -0.620999
   6.11642     -0.627479
   6.07099     -0.633081
   6.02557     -0.638828
   5.98014     -0.644055
   5.93472     -0.648865
   5.88929     -0.658046
   5.84387     -0.661814
   5.79844     -0.664815
   5.75302     -0.669421
   5.70759     -0.670832
   5.66217     -0.671306
   5.66217     -1.501614
   5.59793     -1.448298
   5.53369     -1.345663
   5.46945     -1.238655
   5.40521     -1.136512
   5.34097     -1.036486
   5.27673     -0.938432
   5.21249     -0.841477
   5.14824     -0.747455
   5.08400     -0.655472
   5.01976     -0.567086
   4.95552     -0.482789
   4.89128     -0.487829
   4.82704     -0.549907
   4.76280     -0.610707
   4.69856     -0.669856
   4.63432     -0.713618
   4.57008     -0.691230
   4.50584     -0.676662
   4.44160     -0.671306
   4.44160     -0.671306
   4.36292     -0.682133
   4.28424     -0.711888
   4.20556     -0.765504
   4.12689     -0.771706
   4.04821     -0.809888
   3.96953     -0.875397
   3.89085     -0.959417
   3.81217     -1.055062
   3.73350     -1.157164
   3.65482     -1.261440
   3.57614     -1.363992
   3.49746     -1.462075
   3.41878     -1.552704
   3.34010     -1.633514
   3.26143     -1.702781
   3.18275     -1.757665
   3.10407     -1.792969
   3.02539     -1.782232
   2.94671     -1.571013
   2.94671     -1.571013
   2.88247     -1.754941
   2.81823     -1.650062
   2.75399     -1.482355
   2.68975     -1.328793
   2.62551     -1.183064
   2.56127     -1.048408
   2.49703     -0.929580
   2.43279     -0.825515
   2.36855     -0.739029
   2.30431     -0.671067
   2.24007     -0.621655
   2.17583     -0.589650
   2.11159     -0.572777
   2.04735     -0.567712
   1.98311     -0.571636
   1.91887     -0.579688
   1.85463     -0.588625
   1.79039     -0.595208
   1.72615     -0.597532
   1.72615     -0.597532
   1.68072     -0.593443
   1.63530     -0.580095
   1.58987     -0.557589
   1.54445     -0.527056
   1.49902     -0.490451
   1.45360     -0.447638
   1.40817     -0.399975
   1.36275     -0.349801
   1.31732     -0.322964
   1.27190     -0.435542
   1.22647     -0.555595
   1.18105     -0.681908
   1.13562     -0.812887
   1.09020     -0.947802
   1.04477     -1.085910
   0.99935     -1.221072
   0.95392     -1.349152
   0.90850     -1.455185
   0.86307     -1.501614
   0.86307     -1.501614
   0.81765     -1.503815
   0.77222     -1.509834
   0.72680     -1.519622
   0.68137     -1.532638
   0.63595     -1.549679
   0.59052     -1.568396
   0.54510     -1.588983
   0.49967     -1.610842
   0.45425     -1.633421
   0.40882     -1.656131
   0.36340     -1.678866
   0.31797     -1.699361
   0.27255     -1.720659
   0.22712     -1.742972
   0.18170     -1.767808
   0.13627     -1.792838
   0.09085     -1.831785
   0.04542     -1.780987
   0.00000     -1.571013
 
# Band-Index   19
   0.00000     -1.571013
   0.04542     -1.543578
   0.09085     -1.465712
   0.13627     -1.355433
   0.18170     -1.228177
   0.22712     -1.091248
   0.27255     -0.956251
   0.31797     -0.824017
   0.36340     -0.696274
   0.40882     -0.575553
   0.45425     -0.496114
   0.49967     -0.496288
   0.54510     -0.496387
   0.59052     -0.496478
   0.63595     -0.496559
   0.68137     -0.496627
   0.72680     -0.496681
   0.77222     -0.496719
   0.81765     -0.496740
   0.86307     -0.496518
   0.86307     -0.496518
   0.90850     -0.459744
   0.95392     -0.364819
   0.99935     -0.240853
   1.04477     -0.109605
   1.09020     -0.049137
   1.13562     -0.091445
   1.18105     -0.139198
   1.22647     -0.189924
   1.27190     -0.242532
   1.31732     -0.296832
   1.36275     -0.218887
   1.40817     -0.124346
   1.45360     -0.040309
   1.49902      0.033203
   1.54445      0.093632
   1.58987      0.140926
   1.63530      0.175587
   1.68072      0.196722
   1.72615      0.203687
   1.72615      0.203687
   1.79039      0.194037
   1.85463      0.167316
   1.91887      0.123918
   1.98311      0.064637
   2.04735     -0.009947
   2.11159     -0.095578
   2.17583     -0.191978
   2.24007     -0.296876
   2.30431     -0.409407
   2.36855     -0.528304
   2.43279     -0.650660
   2.49703     -0.799181
   2.56127     -0.958068
   2.62551     -1.124305
   2.68975     -1.296489
   2.75399     -1.472716
   2.81823     -1.637473
   2.88247     -1.640926
   2.94671     -1.571013
   2.94671     -1.571013
   3.02539     -1.603728
   3.10407     -1.521903
   3.18275     -1.337132
   3.26143     -1.152933
   3.34010     -0.981711
   3.41878     -0.827487
   3.49746     -0.692179
   3.57614     -0.576612
   3.65482     -0.479008
   3.73350     -0.399009
   3.81217     -0.333588
   3.89085     -0.279934
   3.96953     -0.237327
   4.04821     -0.202529
   4.12689     -0.173762
   4.20556     -0.150126
   4.28424     -0.131998
   4.36292     -0.120411
   4.44160     -0.116342
   4.44160     -0.116342
   4.50584     -0.122776
   4.57008     -0.141757
   4.63432     -0.173093
   4.69856     -0.216256
   4.76280     -0.270092
   4.82704     -0.333416
   4.89128     -0.404348
   4.95552     -0.425211
   5.01976     -0.363391
   5.08400     -0.301714
   5.14824     -0.240892
   5.21249     -0.180860
   5.27673     -0.125503
   5.34097     -0.074059
   5.40521     -0.029208
   5.46945      0.007533
   5.53369     -0.233682
   5.59793     -0.423077
   5.66217     -0.496518
   5.66217     -0.116342
   5.70759     -0.119445
   5.75302     -0.127236
   5.79844     -0.136023
   5.84387     -0.141448
   5.88929     -0.139793
   5.93472     -0.130418
   5.98014     -0.112191
   6.02557     -0.087033
   6.07099     -0.055498
   6.11642     -0.021521
   6.16184      0.015969
   6.20727      0.052205
   6.25269      0.086745
   6.29812      0.119108
   6.34354      0.148700
   6.38897      0.171209
   6.43439      0.188655
   6.47982      0.200042
   6.52524      0.203687
 
# Band-Index   20
   6.52524      0.203687
   6.47982      0.200042
   6.43439      0.188655
   6.38897      0.171209
   6.34354      0.148700
   6.29812      0.119108
   6.25269      0.086745
   6.20727      0.052205
   6.16184      0.015969
   6.11642     -0.021521
   6.07099     -0.055498
   6.02557     -0.087033
   5.98014     -0.112191
   5.93472     -0.130418
   5.88929     -0.139793
   5.84387     -0.141448
   5.79844     -0.136023
   5.75302     -0.127236
   5.70759     -0.119445
   5.66217     -0.116342
   5.66217      0.057394
   5.59793      0.050726
   5.53369      0.034109
   5.46945      0.023645
   5.40521      0.030322
   5.34097      0.016379
   5.27673      0.000244
   5.21249     -0.017301
   5.14824     -0.036645
   5.08400     -0.054874
   5.01976     -0.073084
   4.95552     -0.089452
   4.89128     -0.103643
   4.82704     -0.114022
   4.76280     -0.120013
   4.69856     -0.122384
   4.63432     -0.121640
   4.57008     -0.119434
   4.50584     -0.117258
   4.44160     -0.116342
   4.44160     -0.116342
   4.36292     -0.120411
   4.28424     -0.131998
   4.20556     -0.150126
   4.12689     -0.173762
   4.04821     -0.202529
   3.96953     -0.237327
   3.89085     -0.279934
   3.81217     -0.333588
   3.73350     -0.399009
   3.65482     -0.479008
   3.57614     -0.576612
   3.49746     -0.692179
   3.41878     -0.827487
   3.34010     -0.981711
   3.26143     -1.152933
   3.18275     -1.337132
   3.10407     -1.521903
   3.02539     -1.603728
   2.94671     -1.571013
   2.94671     -1.571013
   2.88247     -1.523526
   2.81823     -1.418410
   2.75399     -1.296354
   2.68975     -1.168307
   2.62551     -1.037705
   2.56127     -0.906894
   2.49703     -0.777562
   2.43279     -0.648051
   2.36855     -0.506431
   2.30431     -0.376458
   2.24007     -0.258017
   2.17583     -0.153394
   2.11159     -0.059080
   2.04735      0.020493
   1.98311      0.086070
   1.91887      0.137712
   1.85463      0.174198
   1.79039      0.196307
   1.72615      0.203687
   1.72615      0.203687
   1.68072      0.202460
   1.63530      0.198485
   1.58987      0.192346
   1.54445      0.185091
   1.49902      0.175464
   1.45360      0.164462
   1.40817      0.152758
   1.36275      0.140375
   1.31732      0.128142
   1.27190      0.116364
   1.22647      0.104967
   1.18105      0.094408
   1.13562      0.084772
   1.09020      0.016612
   1.04477     -0.012582
   0.99935      0.017099
   0.95392      0.038679
   0.90850      0.051910
   0.86307      0.057394
   0.86307      0.057394
   0.81765      0.049660
   0.77222      0.029448
   0.72680     -0.004066
   0.68137     -0.050603
   0.63595     -0.110243
   0.59052     -0.181649
   0.54510     -0.264598
   0.49967     -0.358358
   0.45425     -0.462696
   0.40882     -0.575553
   0.36340     -0.696274
   0.31797     -0.824017
   0.27255     -0.956251
   0.22712     -1.091248
   0.18170     -1.228177
   0.13627     -1.355433
   0.09085     -1.465712
   0.04542     -1.543578
   0.00000     -1.571013
 
# Band-Index   21
   0.00000     -1.562825
   0.04542     -1.385468
   0.09085     -1.229475
   0.13627     -1.071834
   0.18170     -0.894975
   0.22712     -0.693435
   0.27255     -0.495912
   0.31797     -0.495999
   0.36340     -0.495911
   0.40882     -0.496012
   0.45425     -0.462696
   0.49967     -0.358358
   0.54510     -0.264598
   0.59052     -0.181649
   0.63595     -0.110243
   0.68137     -0.050603
   0.72680     -0.004066
   0.77222      0.029448
   0.81765      0.049660
   0.86307      0.057394
   0.86307      0.057394
   0.90850      0.057191
   0.95392      0.059600
   0.99935      0.063606
   1.04477      0.069204
   1.09020      0.076435
   1.13562      0.130834
   1.18105      0.229835
   1.22647      0.313917
   1.27190      0.383730
   1.31732      0.440560
   1.36275      0.486987
   1.40817      0.524523
   1.45360      0.554341
   1.49902      0.577634
   1.54445      0.596073
   1.58987      0.609373
   1.63530      0.618641
   1.68072      0.624337
   1.72615      0.626108
   1.72615      0.626108
   1.79039      0.622263
   1.85463      0.611509
   1.91887      0.593425
   1.98311      0.566733
   2.04735      0.531884
   2.11159      0.487406
   2.17583      0.432505
   2.24007      0.367895
   2.30431      0.291324
   2.36855      0.202704
   2.43279      0.101378
   2.49703     -0.013910
   2.56127     -0.145593
   2.62551     -0.299173
   2.68975     -0.484656
   2.75399     -0.715581
   2.81823     -0.985462
   2.88247     -1.274801
   2.94671     -1.562825
   2.94671     -1.562825
   3.02539     -1.181308
   3.10407     -0.756871
   3.18275     -0.299040
   3.26143      0.185040
   3.34010      0.683964
   3.41878      1.055515
   3.49746      1.395181
   3.57614      1.736059
   3.65482      2.072500
   3.73350      2.265525
   3.81217      2.050421
   3.89085      1.683672
   3.96953      1.253093
   4.04821      0.828674
   4.12689      0.455493
   4.20556      0.171451
   4.28424     -0.006593
   4.36292     -0.092507
   4.44160     -0.116342
   4.44160     -0.116342
   4.50584     -0.098753
   4.57008     -0.038047
   4.63432      0.081393
   4.69856      0.268986
   4.76280      0.521470
   4.82704      0.826516
   4.89128      1.167234
   4.95552      1.521835
   5.01976      1.869311
   5.08400      2.016213
   5.14824      1.667132
   5.21249      1.318979
   5.27673      0.974731
   5.34097      0.639472
   5.40521      0.319388
   5.46945      0.041771
   5.53369      0.049803
   5.59793      0.054722
   5.66217      0.057394
   5.66217     -0.116342
   5.70759     -0.105072
   5.75302     -0.070184
   5.79844     -0.008755
   5.84387      0.082436
   5.88929      0.206077
   5.93472      0.362933
   5.98014      0.550061
   6.02557      0.764014
   6.07099      0.999814
   6.11642      1.252559
   6.16184      1.517195
   6.20727      1.786015
   6.25269      1.676542
   6.29812      1.403152
   6.34354      1.153294
   6.38897      0.937400
   6.43439      0.769821
   6.47982      0.663054
   6.52524      0.626108
 
# Band-Index   22
   6.52524      3.049551
   6.47982      3.014181
   6.43439      2.909205
   6.38897      2.749470
   6.34354      2.545181
   6.29812      2.309096
   6.25269      2.052849
   6.20727      1.965291
   6.16184      2.257455
   6.11642      2.547093
   6.07099      2.829682
   6.02557      3.097795
   5.98014      3.349067
   5.93472      3.577804
   5.88929      3.783059
   5.84387      3.954276
   5.79844      4.091519
   5.75302      4.186813
   5.70759      4.246876
   5.66217      4.267274
   5.66217      2.077330
   5.59793      2.102114
   5.53369      2.179057
   5.46945      2.297888
   5.40521      2.445775
   5.34097      2.612567
   5.27673      2.790238
   5.21249      2.666700
   5.14824      2.460183
   5.08400      2.190615
   5.01976      2.357778
   4.95552      2.691637
   4.89128      3.006789
   4.82704      3.302765
   4.76280      3.572605
   4.69856      3.809051
   4.63432      4.005061
   4.57008      4.149438
   4.50584      4.236733
   4.44160      4.267274
   4.44160      4.267274
   4.36292      4.238041
   4.28424      4.149822
   4.20556      4.005296
   4.12689      3.812400
   4.04821      3.581791
   3.96953      3.320214
   3.89085      3.033890
   3.81217      2.726099
   3.73350      2.404935
   3.65482      2.072500
   3.57614      1.736059
   3.49746      1.395181
   3.41878      1.055515
   3.34010      0.720093
   3.26143      0.394651
   3.18275      0.084476
   3.10407     -0.193253
   3.02539     -0.408474
   2.94671     -0.495887
   2.94671     -0.495887
   2.88247     -0.464618
   2.81823     -0.371507
   2.75399     -0.212782
   2.68975      0.021382
   2.62551      0.324946
   2.56127      0.674492
   2.49703      1.045947
   2.43279      1.422757
   2.36855      1.787453
   2.30431      2.123971
   2.24007      2.415910
   2.17583      2.647890
   2.11159      2.819483
   2.04735      2.930730
   1.98311      2.995299
   1.91887      3.028515
   1.85463      3.042593
   1.79039      3.047391
   1.72615      3.049551
   1.72615      3.049551
   1.68072      3.049080
   1.63530      3.046496
   1.58987      3.043662
   1.54445      3.040253
   1.49902      3.034700
   1.45360      3.029086
   1.40817      3.022138
   1.36275      3.014172
   1.31732      3.005105
   1.27190      2.995778
   1.22647      2.896641
   1.18105      2.720619
   1.13562      2.557764
   1.09020      2.414027
   1.04477      2.293097
   0.99935      2.197620
   0.95392      2.129562
   0.90850      2.088798
   0.86307      2.077330
   0.86307      2.077330
   0.81765      2.060037
   0.77222      2.013000
   0.72680      1.928531
   0.68137      1.797560
   0.63595      1.613523
   0.59052      1.384070
   0.54510      1.125767
   0.49967      0.853173
   0.45425      0.575934
   0.40882      0.300512
   0.36340      0.030785
   0.31797     -0.226951
   0.27255     -0.469466
   0.22712     -0.495826
   0.18170     -0.495841
   0.13627     -0.495786
   0.09085     -0.495745
   0.04542     -0.495862
   0.00000     -0.495887
 
# Band-Index   23
   0.00000     -0.495887
   0.04542     -0.435531
   0.09085     -0.278235
   0.13627     -0.067059
   0.18170      0.166402
   0.22712      0.407849
   0.27255      0.645087
   0.31797      0.874622
   0.36340      1.093476
   0.40882      1.298494
   0.45425      1.489716
   0.49967      1.667855
   0.54510      1.835292
   0.59052      1.997933
   0.63595      2.165791
   0.68137      2.351475
   0.72680      2.544186
   0.77222      2.730225
   0.81765      2.869733
   0.86307      2.922820
   0.86307      2.922820
   0.90850      2.924118
   0.95392      2.927966
   0.99935      2.934111
   1.04477      2.942152
   1.09020      2.951200
   1.13562      2.961891
   1.18105      2.972880
   1.22647      2.984069
   1.27190      3.081591
   1.31732      3.266177
   1.36275      3.447862
   1.40817      3.622089
   1.45360      3.780454
   1.49902      3.922085
   1.54445      4.042532
   1.58987      4.136922
   1.63530      4.205396
   1.68072      4.247745
   1.72615      4.261920
   1.72615      4.261920
   1.79039      4.233515
   1.85463      4.149851
   1.91887      4.017233
   1.98311      3.831320
   2.04735      3.608878
   2.11159      3.349539
   2.17583      3.063766
   2.24007      2.757013
   2.30431      2.432468
   2.36855      2.097090
   2.43279      1.755163
   2.49703      1.409648
   2.56127      1.065124
   2.62551      0.725703
   2.68975      0.396407
   2.75399      0.085378
   2.81823     -0.194062
   2.88247     -0.408768
   2.94671     -0.495887
   2.94671     -0.495887
   3.02539     -0.408474
   3.10407     -0.193253
   3.18275      0.084476
   3.26143      0.394651
   3.34010      0.720093
   3.41878      1.178529
   3.49746      1.639695
   3.57614      2.024329
   3.65482      2.255532
   3.73350      2.404935
   3.81217      2.726099
   3.89085      3.033890
   3.96953      3.320214
   4.04821      3.581791
   4.12689      3.812400
   4.20556      4.005296
   4.28424      4.149822
   4.36292      4.238041
   4.44160      4.267274
   4.44160      4.267274
   4.50584      4.256995
   4.57008      4.229089
   4.63432      4.179336
   4.69856      4.108322
   4.76280      4.019357
   4.82704      3.910870
   4.89128      3.787171
   4.95552      3.647574
   5.01976      3.494178
   5.08400      3.327302
   5.14824      3.151169
   5.21249      2.972329
   5.27673      2.805356
   5.34097      2.885725
   5.40521      2.923503
   5.46945      2.933486
   5.53369      2.930786
   5.59793      2.925283
   5.66217      2.922820
   5.66217      4.267274
   5.70759      4.267228
   5.75302      4.267090
   5.79844      4.268908
   5.84387      4.268477
   5.88929      4.267987
   5.93472      4.271918
   5.98014      4.271212
   6.02557      4.270495
   6.07099      4.270003
   6.11642      4.269303
   6.16184      4.269593
   6.20727      4.268948
   6.25269      4.265997
   6.29812      4.265361
   6.34354      4.264849
   6.38897      4.262376
   6.43439      4.262010
   6.47982      4.261998
   6.52524      4.261920
 
# Band-Index   24
   6.52524      7.359716
   6.47982      7.370325
   6.43439      7.400730
   6.38897      7.452649
   6.34354      7.524966
   6.29812      7.614679
   6.25269      7.721162
   6.20727      7.843889
   6.16184      7.978480
   6.11642      8.122890
   6.07099      8.276706
   6.02557      8.436577
   5.98014      8.598428
   5.93472      8.759068
   5.88929      8.911589
   5.84387      9.054735
   5.79844      9.179271
   5.75302      9.275946
   5.70759      9.337000
   5.66217      9.358715
   5.66217      4.820197
   5.59793      4.856518
   5.53369      4.963589
   5.46945      5.135179
   5.40521      5.360200
   5.34097      5.628000
   5.27673      5.927315
   5.21249      6.248747
   5.14824      6.580816
   5.08400      6.919312
   5.01976      7.257575
   4.95552      7.589300
   4.89128      7.910755
   4.82704      8.146839
   4.76280      8.419300
   4.69856      8.776087
   4.63432      8.953522
   4.57008      9.165494
   4.50584      9.307000
   4.44160      9.358715
   4.44160      9.358715
   4.36292      9.263037
   4.28424      9.000327
   4.20556      8.617850
   4.12689      8.167832
   4.04821      7.691368
   3.96953      7.217423
   3.89085      6.789801
   3.81217      6.468569
   3.73350      6.339562
   3.65482      6.471159
   3.57614      6.851642
   3.49746      7.403124
   3.41878      8.045965
   3.34010      8.718507
   3.26143      9.373366
   3.18275      9.823836
   3.10407     10.185526
   3.02539     10.578642
   2.94671     10.902572
   2.94671     10.902572
   2.88247     10.582109
   2.81823     10.189199
   2.75399      9.820154
   2.68975      9.478661
   2.62551      9.123833
   2.56127      8.684365
   2.49703      8.258963
   2.43279      7.865028
   2.36855      7.520654
   2.30431      7.241465
   2.24007      7.041765
   2.17583      6.929972
   2.11159      6.905931
   2.04735      6.954737
   1.98311      7.047611
   1.91887      7.162916
   1.85463      7.263219
   1.79039      7.333714
   1.72615      7.359716
   1.72615      7.359716
   1.68072      7.342331
   1.63530      7.289937
   1.58987      7.206712
   1.54445      7.092738
   1.49902      6.950250
   1.45360      6.786181
   1.40817      6.604709
   1.36275      6.408716
   1.31732      6.205814
   1.27190      6.000454
   1.22647      5.796037
   1.18105      5.598908
   1.13562      5.413552
   1.09020      5.245665
   1.04477      5.099700
   0.99935      4.980451
   0.95392      4.892422
   0.90850      4.838260
   0.86307      4.820197
   0.86307      4.820197
   0.81765      4.881751
   0.77222      5.049275
   0.72680      5.288349
   0.68137      5.572615
   0.63595      5.884068
   0.59052      6.214411
   0.54510      6.558173
   0.49967      6.912034
   0.45425      7.273782
   0.40882      7.641679
   0.36340      8.015220
   0.31797      8.391361
   0.27255      8.769584
   0.22712      9.147906
   0.18170      9.526986
   0.13627      9.905827
   0.09085     10.279631
   0.04542     10.642487
   0.00000     10.902572
